SAO MARTINHO DA SERRA EMBRACE-06 <007> 1 Min. Reported data

 DD MM YYYY  HH MM   D(Deg)  H(nT)   Z(nT)   I(Deg)   F(nT)

 07 01 2015  00 00  -14.4024 17995.3 -13508.3 -36.8939 22501.3
 07 01 2015  00 01  -14.4024 17995.4 -13508.5 -36.8940 22501.4
 07 01 2015  00 02  -14.4027 17995.6 -13508.6 -36.8940 22501.7
 07 01 2015  00 03  -14.4029 17996.1 -13508.7 -36.8936 22502.1
 07 01 2015  00 04  -14.4034 17996.5 -13508.8 -36.8931 22502.5
 07 01 2015  00 05  -14.4036 17997.0 -13508.9 -36.8925 22503.0
 07 01 2015  00 06  -14.4035 17997.5 -13509.0 -36.8919 22503.4
 07 01 2015  00 07  -14.4034 17998.1 -13509.0 -36.8911 22503.9
 07 01 2015  00 08  -14.4037 17998.2 -13509.0 -36.8908 22503.9
 07 01 2015  00 09  -14.4034 17998.2 -13508.9 -36.8907 22503.9
 07 01 2015  00 10  -14.4024 17998.5 -13508.9 -36.8904 22504.1
 07 01 2015  00 11  -14.4037 17998.3 -13508.9 -36.8905 22503.9
 07 01 2015  00 12  -14.4042 17997.8 -13508.7 -36.8909 22503.4
 07 01 2015  00 13  -14.4038 17997.5 -13508.7 -36.8914 22503.2
 07 01 2015  00 14  -14.4035 17997.3 -13508.8 -36.8918 22503.1
 07 01 2015  00 15  -14.4029 17997.1 -13508.8 -36.8922 22503.0
 07 01 2015  00 16  -14.4029 17997.1 -13508.9 -36.8925 22503.0
 07 01 2015  00 17  -14.4042 17996.8 -13508.9 -36.8929 22502.8
 07 01 2015  00 18  -14.4043 17996.4 -13508.9 -36.8935 22502.4
 07 01 2015  00 19  -14.4032 17996.4 -13508.9 -36.8934 22502.4
 07 01 2015  00 20  -14.4021 17996.9 -13509.2 -36.8932 22503.1
 07 01 2015  00 21  -14.4021 17997.6 -13509.4 -36.8926 22503.7
 07 01 2015  00 22  -14.4019 17998.5 -13509.4 -36.8914 22504.4
 07 01 2015  00 23  -14.4025 17999.0 -13509.5 -36.8908 22504.9
 07 01 2015  00 24  -14.4025 17999.3 -13509.4 -36.8900 22505.1
 07 01 2015  00 25  -14.4022 17999.8 -13509.4 -36.8893 22505.5
 07 01 2015  00 26  -14.4022 18000.1 -13509.3 -36.8887 22505.7
 07 01 2015  00 27  -14.4022 18000.1 -13509.3 -36.8885 22505.6
 07 01 2015  00 28  -14.4019 18000.2 -13509.2 -36.8881 22505.7
 07 01 2015  00 29  -14.4017 18000.2 -13509.1 -36.8880 22505.7
 07 01 2015  00 30  -14.4016 18000.1 -13509.1 -36.8882 22505.5
 07 01 2015  00 31  -14.4016 17999.7 -13509.0 -36.8885 22505.2
 07 01 2015  00 32  -14.4022 17999.5 -13508.9 -36.8887 22505.0
 07 01 2015  00 33  -14.4028 17999.5 -13509.0 -36.8888 22505.0
 07 01 2015  00 34  -14.4031 17999.6 -13509.0 -36.8888 22505.0
 07 01 2015  00 35  -14.4031 17999.6 -13509.1 -36.8890 22505.1
 07 01 2015  00 36  -14.4034 17999.6 -13509.1 -36.8889 22505.1
 07 01 2015  00 37  -14.4036 17999.5 -13509.1 -36.8889 22505.1
 07 01 2015  00 38  -14.4033 17999.6 -13509.1 -36.8890 22505.2
 07 01 2015  00 39  -14.4033 17999.7 -13509.1 -36.8887 22505.2
 07 01 2015  00 40  -14.4036 17999.7 -13509.0 -36.8886 22505.2
 07 01 2015  00 41  -14.4039 17999.6 -13509.0 -36.8887 22505.1
 07 01 2015  00 42  -14.4041 17999.6 -13509.0 -36.8887 22505.1
 07 01 2015  00 43  -14.4043 17999.6 -13509.0 -36.8888 22505.1
 07 01 2015  00 44  -14.4043 17999.6 -13509.0 -36.8888 22505.1
 07 01 2015  00 45  -14.4045 17999.5 -13508.9 -36.8888 22504.9
 07 01 2015  00 46  -14.4043 17999.5 -13508.9 -36.8888 22505.0
 07 01 2015  00 47  -14.4043 17999.6 -13508.9 -36.8886 22505.1
 07 01 2015  00 48  -14.4048 17999.5 -13508.9 -36.8888 22505.0
 07 01 2015  00 49  -14.4056 17998.9 -13508.9 -36.8896 22504.4
 07 01 2015  00 50  -14.4059 17998.2 -13508.7 -36.8903 22503.8
 07 01 2015  00 51  -14.4058 17997.9 -13508.7 -36.8908 22503.6
 07 01 2015  00 52  -14.4057 17998.2 -13508.9 -36.8907 22503.9
 07 01 2015  00 53  -14.4059 17998.8 -13509.1 -36.8901 22504.5
 07 01 2015  00 54  -14.4056 17999.5 -13509.3 -36.8895 22505.2
 07 01 2015  00 55  -14.4059 17999.7 -13509.1 -36.8889 22505.2
 07 01 2015  00 56  -14.4066 17999.5 -13509.2 -36.8892 22505.1
 07 01 2015  00 57  -14.4070 17999.4 -13509.0 -36.8890 22504.9
 07 01 2015  00 58  -14.4074 17999.1 -13509.0 -36.8895 22504.7
 07 01 2015  00 59  -14.4075 17998.8 -13509.0 -36.8899 22504.4
 07 01 2015  01 00  -14.4049 18000.0 -13509.2 -36.8886 22505.6
 07 01 2015  01 01  -14.4041 18002.3 -13509.7 -36.8859 22507.7
 07 01 2015  01 02  -14.4049 18004.0 -13509.8 -36.8836 22509.1
 07 01 2015  01 03  -14.4046 18005.8 -13509.9 -36.8811 22510.6
 07 01 2015  01 04  -14.4048 18006.7 -13509.7 -36.8794 22511.2
 07 01 2015  01 05  -14.4042 18006.6 -13509.3 -36.8788 22510.8
 07 01 2015  01 06  -14.4028 18005.9 -13509.1 -36.8793 22510.1
 07 01 2015  01 07  -14.4014 18005.1 -13508.7 -36.8798 22509.3
 07 01 2015  01 08  -14.4003 18004.6 -13508.6 -36.8803 22508.8
 07 01 2015  01 09  -14.3997 18004.2 -13508.7 -36.8810 22508.6
 07 01 2015  01 10  -14.3993 18004.5 -13508.9 -36.8809 22508.9
 07 01 2015  01 11  -14.3999 18004.8 -13509.0 -36.8807 22509.2
 07 01 2015  01 12  -14.4006 18004.7 -13508.9 -36.8809 22509.1
 07 01 2015  01 13  -14.4020 18004.0 -13508.9 -36.8818 22508.5
 07 01 2015  01 14  -14.4030 18002.0 -13508.5 -36.8840 22506.8
 07 01 2015  01 15  -14.4018 18000.0 -13508.3 -36.8867 22505.0
 07 01 2015  01 16  -14.4010 17998.8 -13508.3 -36.8887 22504.0
 07 01 2015  01 17  -14.4018 17998.2 -13508.7 -36.8904 22503.8
 07 01 2015  01 18  -14.4033 17997.9 -13509.1 -36.8914 22503.8
 07 01 2015  01 19  -14.4053 17997.8 -13509.4 -36.8923 22503.8
 07 01 2015  01 20  -14.4055 17997.3 -13509.4 -36.8930 22503.5
 07 01 2015  01 21  -14.4032 17998.5 -13509.8 -36.8921 22504.7
 07 01 2015  01 22  -14.4034 18001.6 -13510.6 -36.8889 22507.6
 07 01 2015  01 23  -14.4058 18004.6 -13511.0 -36.8851 22510.3
 07 01 2015  01 24  -14.4064 18005.3 -13510.8 -36.8836 22510.7
 07 01 2015  01 25  -14.4028 18005.5 -13510.4 -36.8825 22510.7
 07 01 2015  01 26  -14.4000 18006.1 -13510.4 -36.8816 22511.1
 07 01 2015  01 27  -14.3984 18006.7 -13510.3 -36.8806 22511.5
 07 01 2015  01 28  -14.3981 18007.2 -13510.1 -36.8794 22511.9
 07 01 2015  01 29  -14.3982 18007.9 -13510.2 -36.8786 22512.4
 07 01 2015  01 30  -14.3980 18008.2 -13510.2 -36.8780 22512.7
 07 01 2015  01 31  -14.3979 18008.2 -13509.9 -36.8774 22512.5
 07 01 2015  01 32  -14.3982 18007.7 -13509.7 -36.8778 22511.9
 07 01 2015  01 33  -14.3970 18007.7 -13509.7 -36.8779 22512.0
 07 01 2015  01 34  -14.3941 18009.6 -13510.3 -36.8761 22513.8
 07 01 2015  01 35  -14.3921 18011.9 -13510.6 -36.8732 22515.9
 07 01 2015  01 36  -14.3921 18013.3 -13510.7 -36.8712 22517.1
 07 01 2015  01 37  -14.3920 18014.2 -13510.5 -36.8695 22517.6
 07 01 2015  01 38  -14.3917 18014.5 -13510.3 -36.8687 22517.7
 07 01 2015  01 39  -14.3913 18014.1 -13509.9 -36.8685 22517.2
 07 01 2015  01 40  -14.3908 18013.3 -13509.7 -36.8691 22516.4
 07 01 2015  01 41  -14.3901 18012.4 -13509.5 -36.8702 22515.6
 07 01 2015  01 42  -14.3892 18011.5 -13509.4 -36.8715 22514.8
 07 01 2015  01 43  -14.3887 18010.8 -13509.3 -36.8723 22514.3
 07 01 2015  01 44  -14.3880 18010.3 -13509.5 -36.8735 22514.0
 07 01 2015  01 45  -14.3878 18010.0 -13509.6 -36.8741 22513.7
 07 01 2015  01 46  -14.3882 18009.8 -13509.6 -36.8743 22513.6
 07 01 2015  01 47  -14.3884 18009.8 -13509.8 -36.8749 22513.7
 07 01 2015  01 48  -14.3887 18009.6 -13509.9 -36.8754 22513.6
 07 01 2015  01 49  -14.3891 18009.0 -13509.9 -36.8762 22513.1
 07 01 2015  01 50  -14.3881 18009.2 -13510.1 -36.8763 22513.4
 07 01 2015  01 51  -14.3875 18009.5 -13510.2 -36.8761 22513.7
 07 01 2015  01 52  -14.3890 18009.0 -13510.2 -36.8768 22513.3
 07 01 2015  01 53  -14.3901 18008.4 -13510.2 -36.8778 22512.9
 07 01 2015  01 54  -14.3909 18007.2 -13510.1 -36.8793 22511.8
 07 01 2015  01 55  -14.3908 18006.0 -13510.0 -36.8809 22510.8
 07 01 2015  01 56  -14.3906 18005.7 -13510.1 -36.8817 22510.6
 07 01 2015  01 57  -14.3913 18005.8 -13510.5 -36.8823 22510.9
 07 01 2015  01 58  -14.3916 18006.0 -13510.7 -36.8824 22511.2
 07 01 2015  01 59  -14.3917 18006.2 -13510.9 -36.8825 22511.5
 07 01 2015  02 00  -14.3914 18006.5 -13510.9 -36.8822 22511.7
 07 01 2015  02 01  -14.3912 18006.7 -13511.2 -36.8824 22512.1
 07 01 2015  02 02  -14.3913 18006.9 -13511.2 -36.8821 22512.2
 07 01 2015  02 03  -14.3921 18006.8 -13511.2 -36.8823 22512.1
 07 01 2015  02 04  -14.3930 18006.6 -13511.2 -36.8826 22512.0
 07 01 2015  02 05  -14.3930 18006.5 -13511.2 -36.8827 22512.0
 07 01 2015  02 06  -14.3928 18006.8 -13511.3 -36.8825 22512.3
 07 01 2015  02 07  -14.3928 18007.3 -13511.5 -36.8822 22512.7
 07 01 2015  02 08  -14.3928 18007.7 -13511.6 -36.8818 22513.1
 07 01 2015  02 09  -14.3928 18007.8 -13511.4 -36.8812 22513.1
 07 01 2015  02 10  -14.3924 18007.7 -13511.4 -36.8814 22513.0
 07 01 2015  02 11  -14.3918 18007.7 -13511.5 -36.8816 22513.1
 07 01 2015  02 12  -14.3914 18007.8 -13511.6 -36.8816 22513.1
 07 01 2015  02 13  -14.3911 18008.0 -13511.6 -36.8813 22513.4
 07 01 2015  02 14  -14.3910 18008.5 -13511.7 -36.8807 22513.8
 07 01 2015  02 15  -14.3905 18008.7 -13511.8 -36.8805 22514.0
 07 01 2015  02 16  -14.3906 18008.5 -13511.7 -36.8805 22513.8
 07 01 2015  02 17  -14.3907 18008.4 -13511.7 -36.8808 22513.7
 07 01 2015  02 18  -14.3904 18008.4 -13511.7 -36.8808 22513.8
 07 01 2015  02 19  -14.3908 18008.3 -13511.8 -36.8810 22513.7
 07 01 2015  02 20  -14.3912 18008.2 -13511.6 -36.8808 22513.5
 07 01 2015  02 21  -14.3915 18008.1 -13511.6 -36.8811 22513.5
 07 01 2015  02 22  -14.3918 18008.1 -13511.7 -36.8813 22513.5
 07 01 2015  02 23  -14.3920 18008.1 -13511.8 -36.8815 22513.5
 07 01 2015  02 24  -14.3918 18008.2 -13511.8 -36.8813 22513.6
 07 01 2015  02 25  -14.3918 18008.2 -13511.9 -36.8815 22513.6
 07 01 2015  02 26  -14.3915 18008.0 -13511.8 -36.8817 22513.5
 07 01 2015  02 27  -14.3915 18008.0 -13511.9 -36.8819 22513.6
 07 01 2015  02 28  -14.3920 18007.7 -13511.9 -36.8824 22513.3
 07 01 2015  02 29  -14.3932 18007.1 -13511.9 -36.8833 22512.8
 07 01 2015  02 30  -14.3946 18006.2 -13511.6 -36.8841 22511.9
 07 01 2015  02 31  -14.3944 18006.1 -13511.8 -36.8846 22512.0
 07 01 2015  02 32  -14.3936 18006.4 -13512.1 -36.8845 22512.4
 07 01 2015  02 33  -14.3940 18006.7 -13512.2 -36.8844 22512.7
 07 01 2015  02 34  -14.3941 18007.0 -13512.3 -36.8842 22513.0
 07 01 2015  02 35  -14.3936 18007.5 -13512.4 -36.8837 22513.4
 07 01 2015  02 36  -14.3936 18007.4 -13512.5 -36.8839 22513.4
 07 01 2015  02 37  -14.3938 18007.3 -13512.5 -36.8840 22513.4
 07 01 2015  02 38  -14.3949 18006.8 -13512.3 -36.8845 22512.8
 07 01 2015  02 39  -14.3957 18006.4 -13512.2 -36.8848 22512.4
 07 01 2015  02 40  -14.3961 18006.4 -13512.3 -36.8852 22512.5
 07 01 2015  02 41  -14.3967 18006.3 -13512.2 -36.8852 22512.4
 07 01 2015  02 42  -14.3968 18006.3 -13512.5 -36.8855 22512.5
 07 01 2015  02 43  -14.3963 18006.5 -13512.5 -36.8853 22512.7
 07 01 2015  02 44  -14.3962 18007.0 -13512.6 -36.8849 22513.1
 07 01 2015  02 45  -14.3965 18007.3 -13512.7 -36.8846 22513.4
 07 01 2015  02 46  -14.3966 18007.5 -13512.7 -36.8842 22513.7
 07 01 2015  02 47  -14.3963 18007.8 -13512.8 -36.8840 22513.9
 07 01 2015  02 48  -14.3965 18007.7 -13512.7 -36.8840 22513.8
 07 01 2015  02 49  -14.3966 18007.8 -13512.7 -36.8838 22513.9
 07 01 2015  02 50  -14.3973 18007.9 -13512.7 -36.8837 22513.9
 07 01 2015  02 51  -14.3980 18007.8 -13512.7 -36.8838 22513.9
 07 01 2015  02 52  -14.3981 18007.9 -13512.7 -36.8837 22513.9
 07 01 2015  02 53  -14.3986 18008.0 -13512.7 -36.8836 22514.0
 07 01 2015  02 54  -14.3993 18007.7 -13512.7 -36.8838 22513.8
 07 01 2015  02 55  -14.3996 18007.5 -13512.7 -36.8842 22513.6
 07 01 2015  02 56  -14.4000 18007.2 -13512.7 -36.8846 22513.4
 07 01 2015  02 57  -14.4001 18006.9 -13512.6 -36.8849 22513.1
 07 01 2015  02 58  -14.4002 18006.4 -13512.6 -36.8857 22512.7
 07 01 2015  02 59  -14.4002 18006.1 -13512.5 -36.8860 22512.4
 07 01 2015  03 00  -14.4007 18006.0 -13512.7 -36.8866 22512.4
 07 01 2015  03 01  -14.4010 18006.1 -13512.8 -36.8865 22512.5
 07 01 2015  03 02  -14.4015 18006.3 -13512.9 -36.8865 22512.8
 07 01 2015  03 03  -14.4020 18006.3 -13513.1 -36.8868 22512.9
 07 01 2015  03 04  -14.4021 18006.3 -13513.0 -36.8867 22512.8
 07 01 2015  03 05  -14.4020 18006.6 -13513.0 -36.8863 22513.1
 07 01 2015  03 06  -14.4018 18007.0 -13513.3 -36.8861 22513.6
 07 01 2015  03 07  -14.4017 18007.4 -13513.4 -36.8856 22514.0
 07 01 2015  03 08  -14.4020 18007.5 -13513.3 -36.8854 22514.0
 07 01 2015  03 09  -14.4024 18007.6 -13513.3 -36.8852 22514.1
 07 01 2015  03 10  -14.4027 18007.2 -13513.1 -36.8855 22513.6
 07 01 2015  03 11  -14.4031 18006.3 -13513.0 -36.8866 22512.8
 07 01 2015  03 12  -14.4038 18005.1 -13512.8 -36.8881 22511.8
 07 01 2015  03 13  -14.4044 18003.9 -13512.7 -36.8898 22510.8
 07 01 2015  03 14  -14.4047 18003.3 -13512.9 -36.8909 22510.4
 07 01 2015  03 15  -14.4052 18003.6 -13513.0 -36.8908 22510.7
 07 01 2015  03 16  -14.4057 18004.4 -13513.5 -36.8907 22511.6
 07 01 2015  03 17  -14.4053 18005.6 -13513.7 -36.8893 22512.7
 07 01 2015  03 18  -14.4051 18006.5 -13513.9 -36.8881 22513.5
 07 01 2015  03 19  -14.4050 18007.0 -13513.9 -36.8875 22513.9
 07 01 2015  03 20  -14.4046 18007.7 -13514.0 -36.8865 22514.5
 07 01 2015  03 21  -14.4041 18007.5 -13513.7 -36.8861 22514.2
 07 01 2015  03 22  -14.4043 18006.7 -13513.5 -36.8870 22513.4
 07 01 2015  03 23  -14.4049 18004.8 -13513.1 -36.8891 22511.7
 07 01 2015  03 24  -14.4056 18002.8 -13512.9 -36.8918 22510.0
 07 01 2015  03 25  -14.4077 18000.9 -13512.7 -36.8944 22508.3
 07 01 2015  03 26  -14.4093 17999.2 -13512.8 -36.8970 22507.0
 07 01 2015  03 27  -14.4105 17998.5 -13513.0 -36.8986 22506.7
 07 01 2015  03 28  -14.4112 17998.6 -13513.3 -36.8992 22506.8
 07 01 2015  03 29  -14.4114 17999.8 -13513.8 -36.8982 22508.1
 07 01 2015  03 30  -14.4111 18001.5 -13514.4 -36.8969 22509.9
 07 01 2015  03 31  -14.4105 18002.5 -13514.5 -36.8956 22510.7
 07 01 2015  03 32  -14.4098 18002.6 -13514.4 -36.8953 22510.7
 07 01 2015  03 33  -14.4095 18002.3 -13514.2 -36.8953 22510.4
 07 01 2015  03 34  -14.4093 18002.0 -13514.1 -36.8954 22510.1
 07 01 2015  03 35  -14.4099 18001.8 -13514.0 -36.8956 22509.8
 07 01 2015  03 36  -14.4106 18001.6 -13514.1 -36.8961 22509.7
 07 01 2015  03 37  -14.4116 18001.6 -13514.1 -36.8961 22509.8
 07 01 2015  03 38  -14.4124 18001.7 -13514.1 -36.8961 22509.8
 07 01 2015  03 39  -14.4124 18001.8 -13514.2 -36.8960 22510.0
 07 01 2015  03 40  -14.4125 18002.2 -13514.3 -36.8956 22510.3
 07 01 2015  03 41  -14.4124 18002.4 -13514.3 -36.8952 22510.5
 07 01 2015  03 42  -14.4126 18002.4 -13514.3 -36.8951 22510.5
 07 01 2015  03 43  -14.4128 18002.4 -13514.3 -36.8952 22510.5
 07 01 2015  03 44  -14.4129 18002.7 -13514.2 -36.8947 22510.7
 07 01 2015  03 45  -14.4133 18002.9 -13514.1 -36.8942 22510.8
 07 01 2015  03 46  -14.4139 18003.0 -13514.3 -36.8943 22511.0
 07 01 2015  03 47  -14.4143 18003.2 -13514.1 -36.8938 22511.0
 07 01 2015  03 48  -14.4144 18003.2 -13514.1 -36.8936 22511.0
 07 01 2015  03 49  -14.4144 18002.9 -13514.0 -36.8938 22510.7
 07 01 2015  03 50  -14.4142 18003.3 -13514.0 -36.8934 22511.0
 07 01 2015  03 51  -14.4141 18003.5 -13514.1 -36.8931 22511.3
 07 01 2015  03 52  -14.4142 18004.0 -13514.1 -36.8923 22511.7
 07 01 2015  03 53  -14.4145 18004.1 -13514.0 -36.8920 22511.6
 07 01 2015  03 54  -14.4141 18004.4 -13514.1 -36.8919 22512.0
 07 01 2015  03 55  -14.4139 18004.2 -13514.0 -36.8918 22511.8
 07 01 2015  03 56  -14.4135 18004.1 -13513.8 -36.8917 22511.6
 07 01 2015  03 57  -14.4131 18004.1 -13513.9 -36.8919 22511.6
 07 01 2015  03 58  -14.4132 18004.0 -13513.8 -36.8917 22511.5
 07 01 2015  03 59  -14.4128 18004.5 -13513.9 -36.8911 22512.0
 07 01 2015  04 00  -14.4134 18004.2 -13513.7 -36.8913 22511.6
 07 01 2015  04 01  -14.4136 18004.3 -13513.8 -36.8912 22511.7
 07 01 2015  04 02  -14.4137 18004.2 -13513.6 -36.8912 22511.5
 07 01 2015  04 03  -14.4144 18004.0 -13513.6 -36.8913 22511.4
 07 01 2015  04 04  -14.4146 18004.3 -13513.7 -36.8910 22511.6
 07 01 2015  04 05  -14.4156 18004.2 -13513.7 -36.8912 22511.6
 07 01 2015  04 06  -14.4158 18004.8 -13513.7 -36.8904 22512.1
 07 01 2015  04 07  -14.4164 18004.8 -13513.6 -36.8903 22512.0
 07 01 2015  04 08  -14.4167 18004.9 -13513.5 -36.8899 22512.0
 07 01 2015  04 09  -14.4170 18005.2 -13513.7 -36.8898 22512.4
 07 01 2015  04 10  -14.4173 18005.8 -13513.8 -36.8890 22512.9
 07 01 2015  04 11  -14.4175 18006.6 -13513.8 -36.8879 22513.6
 07 01 2015  04 12  -14.4178 18007.1 -13513.8 -36.8870 22513.9
 07 01 2015  04 13  -14.4181 18007.4 -13513.7 -36.8864 22514.1
 07 01 2015  04 14  -14.4185 18007.1 -13513.5 -36.8865 22513.8
 07 01 2015  04 15  -14.4191 18006.6 -13513.3 -36.8868 22513.2
 07 01 2015  04 16  -14.4196 18006.3 -13513.2 -36.8871 22512.9
 07 01 2015  04 17  -14.4200 18006.1 -13513.2 -36.8873 22512.8
 07 01 2015  04 18  -14.4205 18005.9 -13513.2 -36.8877 22512.7
 07 01 2015  04 19  -14.4210 18006.2 -13513.2 -36.8873 22512.9
 07 01 2015  04 20  -14.4210 18006.9 -13513.3 -36.8865 22513.5
 07 01 2015  04 21  -14.4210 18007.3 -13513.4 -36.8858 22513.9
 07 01 2015  04 22  -14.4212 18007.6 -13513.4 -36.8855 22514.1
 07 01 2015  04 23  -14.4216 18007.9 -13513.4 -36.8851 22514.4
 07 01 2015  04 24  -14.4220 18007.5 -13513.2 -36.8852 22514.0
 07 01 2015  04 25  -14.4219 18007.6 -13513.0 -36.8847 22513.8
 07 01 2015  04 26  -14.4220 18007.7 -13513.1 -36.8848 22514.0
 07 01 2015  04 27  -14.4219 18008.1 -13513.2 -36.8842 22514.4
 07 01 2015  04 28  -14.4214 18008.8 -13513.2 -36.8832 22514.9
 07 01 2015  04 29  -14.4212 18008.8 -13513.1 -36.8830 22514.9
 07 01 2015  04 30  -14.4208 18009.1 -13513.0 -36.8824 22515.1
 07 01 2015  04 31  -14.4203 18009.5 -13513.0 -36.8817 22515.4
 07 01 2015  04 32  -14.4199 18009.7 -13513.0 -36.8814 22515.5
 07 01 2015  04 33  -14.4196 18009.8 -13513.0 -36.8814 22515.6
 07 01 2015  04 34  -14.4193 18010.1 -13513.0 -36.8809 22515.9
 07 01 2015  04 35  -14.4194 18010.1 -13512.9 -36.8806 22515.8
 07 01 2015  04 36  -14.4195 18010.1 -13512.9 -36.8805 22515.8
 07 01 2015  04 37  -14.4197 18010.1 -13512.8 -36.8804 22515.8
 07 01 2015  04 38  -14.4197 18009.9 -13512.6 -36.8804 22515.5
 07 01 2015  04 39  -14.4196 18009.7 -13512.6 -36.8806 22515.3
 07 01 2015  04 40  -14.4198 18009.5 -13512.5 -36.8809 22515.1
 07 01 2015  04 41  -14.4200 18009.2 -13512.5 -36.8814 22514.9
 07 01 2015  04 42  -14.4202 18008.8 -13512.4 -36.8816 22514.5
 07 01 2015  04 43  -14.4203 18008.8 -13512.6 -36.8820 22514.5
 07 01 2015  04 44  -14.4207 18008.8 -13512.5 -36.8820 22514.5
 07 01 2015  04 45  -14.4210 18008.9 -13512.6 -36.8820 22514.7
 07 01 2015  04 46  -14.4213 18009.0 -13512.7 -36.8819 22514.8
 07 01 2015  04 47  -14.4214 18009.3 -13512.6 -36.8813 22515.0
 07 01 2015  04 48  -14.4214 18009.6 -13512.6 -36.8807 22515.2
 07 01 2015  04 49  -14.4213 18009.8 -13512.7 -36.8807 22515.5
 07 01 2015  04 50  -14.4211 18009.9 -13512.7 -36.8806 22515.6
 07 01 2015  04 51  -14.4208 18010.0 -13512.6 -36.8803 22515.5
 07 01 2015  04 52  -14.4207 18009.9 -13512.7 -36.8804 22515.5
 07 01 2015  04 53  -14.4206 18009.7 -13512.5 -36.8804 22515.3
 07 01 2015  04 54  -14.4207 18009.7 -13512.6 -36.8806 22515.3
 07 01 2015  04 55  -14.4209 18009.5 -13512.4 -36.8806 22515.1
 07 01 2015  04 56  -14.4212 18009.5 -13512.5 -36.8806 22515.1
 07 01 2015  04 57  -14.4213 18009.4 -13512.5 -36.8809 22515.0
 07 01 2015  04 58  -14.4213 18009.1 -13512.5 -36.8812 22514.8
 07 01 2015  04 59  -14.4213 18009.1 -13512.5 -36.8814 22514.8
 07 01 2015  05 00  -14.4216 18008.7 -13512.3 -36.8816 22514.4
 07 01 2015  05 01  -14.4218 18008.5 -13512.5 -36.8822 22514.3
 07 01 2015  05 02  -14.4222 18008.5 -13512.5 -36.8824 22514.3
 07 01 2015  05 03  -14.4221 18008.5 -13512.6 -36.8826 22514.3
 07 01 2015  05 04  -14.4221 18008.5 -13512.4 -36.8822 22514.2
 07 01 2015  05 05  -14.4221 18008.5 -13512.3 -36.8820 22514.2
 07 01 2015  05 06  -14.4221 18008.5 -13512.5 -36.8823 22514.4
 07 01 2015  05 07  -14.4222 18008.7 -13512.4 -36.8818 22514.4
 07 01 2015  05 08  -14.4222 18008.8 -13512.6 -36.8821 22514.6
 07 01 2015  05 09  -14.4221 18008.7 -13512.5 -36.8820 22514.5
 07 01 2015  05 10  -14.4220 18008.4 -13512.4 -36.8822 22514.2
 07 01 2015  05 11  -14.4219 18008.1 -13512.4 -36.8827 22513.9
 07 01 2015  05 12  -14.4217 18008.0 -13512.5 -36.8829 22513.9
 07 01 2015  05 13  -14.4218 18008.1 -13512.5 -36.8828 22514.0
 07 01 2015  05 14  -14.4219 18008.3 -13512.6 -36.8827 22514.2
