SAO MARTINHO DA SERRA EMBRACE-06 <026> 1 Min. Reported data

 DD MM YYYY  HH MM   D(Deg)  H(nT)   Z(nT)   I(Deg)   F(nT)

 26 01 2015  00 00  -14.4279 17995.4 -13513.3 -36.9039 22504.3
 26 01 2015  00 01  -14.4272 17995.6 -13513.2 -36.9035 22504.4
 26 01 2015  00 02  -14.4268 17995.3 -13512.9 -36.9032 22504.0
 26 01 2015  00 03  -14.4265 17994.9 -13513.0 -36.9040 22503.7
 26 01 2015  00 04  -14.4264 17994.9 -13513.5 -36.9050 22504.0
 26 01 2015  00 05  -14.4265 17994.6 -13513.3 -36.9051 22503.6
 26 01 2015  00 06  -14.4268 17994.1 -13513.0 -36.9053 22503.1
 26 01 2015  00 07  -14.4273 17993.7 -13513.0 -36.9058 22502.8
 26 01 2015  00 08  -14.4271 17993.6 -13513.2 -36.9064 22502.8
 26 01 2015  00 09  -14.4271 17993.0 -13513.4 -36.9078 22502.5
 26 01 2015  00 10  -14.4276 17992.5 -13513.4 -36.9086 22502.0
 26 01 2015  00 11  -14.4276 17992.2 -13513.3 -36.9088 22501.8
 26 01 2015  00 12  -14.4276 17992.1 -13514.0 -36.9105 22502.1
 26 01 2015  00 13  -14.4276 17992.2 -13513.8 -36.9099 22502.0
 26 01 2015  00 14  -14.4279 17991.8 -13513.7 -36.9103 22501.6
 26 01 2015  00 15  -14.4284 17991.2 -13513.8 -36.9113 22501.2
 26 01 2015  00 16  -14.4292 17990.6 -13513.8 -36.9122 22500.8
 26 01 2015  00 17  -14.4299 17990.1 -13513.4 -36.9122 22500.2
 26 01 2015  00 18  -14.4300 17989.5 -13513.8 -36.9139 22499.9
 26 01 2015  00 19  -14.4297 17989.0 -13513.6 -36.9142 22499.4
 26 01 2015  00 20  -14.4289 17988.7 -13514.3 -36.9163 22499.6
 26 01 2015  00 21  -14.4280 17988.9 -13514.1 -36.9155 22499.6
 26 01 2015  00 22  -14.4273 17989.1 -13514.5 -36.9161 22500.0
 26 01 2015  00 23  -14.4265 17989.0 -13514.4 -36.9160 22499.9
 26 01 2015  00 24  -14.4257 17989.0 -13514.7 -36.9166 22500.0
 26 01 2015  00 25  -14.4250 17988.9 -13514.6 -36.9166 22499.8
 26 01 2015  00 26  -14.4245 17988.8 -13514.7 -36.9170 22499.9
 26 01 2015  00 27  -14.4241 17988.4 -13514.7 -36.9175 22499.6
 26 01 2015  00 28  -14.4239 17988.1 -13515.0 -36.9185 22499.5
 26 01 2015  00 29  -14.4241 17987.5 -13514.8 -36.9190 22498.9
 26 01 2015  00 30  -14.4244 17986.9 -13514.9 -36.9203 22498.4
 26 01 2015  00 31  -14.4248 17986.4 -13514.9 -36.9208 22498.1
 26 01 2015  00 32  -14.4249 17986.1 -13514.9 -36.9215 22497.8
 26 01 2015  00 33  -14.4247 17986.0 -13514.9 -36.9216 22497.7
 26 01 2015  00 34  -14.4245 17985.8 -13515.3 -36.9228 22497.9
 26 01 2015  00 35  -14.4240 17986.0 -13515.5 -36.9229 22498.1
 26 01 2015  00 36  -14.4238 17985.8 -13515.4 -36.9228 22497.9
 26 01 2015  00 37  -14.4231 17985.8 -13515.1 -36.9222 22497.7
 26 01 2015  00 38  -14.4228 17985.6 -13515.0 -36.9223 22497.5
 26 01 2015  00 39  -14.4224 17985.5 -13515.1 -36.9228 22497.5
 26 01 2015  00 40  -14.4219 17985.6 -13515.5 -36.9234 22497.8
 26 01 2015  00 41  -14.4216 17985.7 -13515.3 -36.9229 22497.7
 26 01 2015  00 42  -14.4211 17985.9 -13515.6 -36.9231 22498.1
 26 01 2015  00 43  -14.4208 17986.2 -13515.3 -36.9220 22498.1
 26 01 2015  00 44  -14.4204 17986.6 -13515.8 -36.9223 22498.8
 26 01 2015  00 45  -14.4204 17986.6 -13515.8 -36.9224 22498.8
 26 01 2015  00 46  -14.4205 17986.5 -13515.6 -36.9223 22498.5
 26 01 2015  00 47  -14.4209 17986.5 -13515.4 -36.9219 22498.4
 26 01 2015  00 48  -14.4209 17986.2 -13515.8 -36.9229 22498.4
 26 01 2015  00 49  -14.4212 17986.0 -13515.5 -36.9228 22498.1
 26 01 2015  00 50  -14.4213 17985.9 -13515.8 -36.9235 22498.2
 26 01 2015  00 51  -14.4210 17986.0 -13515.6 -36.9231 22498.2
 26 01 2015  00 52  -14.4210 17986.1 -13515.6 -36.9229 22498.2
 26 01 2015  00 53  -14.4205 17986.3 -13515.7 -36.9227 22498.5
 26 01 2015  00 54  -14.4200 17986.5 -13515.9 -36.9227 22498.8
 26 01 2015  00 55  -14.4199 17986.7 -13516.1 -36.9230 22499.0
 26 01 2015  00 56  -14.4194 17987.0 -13515.9 -36.9221 22499.1
 26 01 2015  00 57  -14.4192 17987.1 -13515.9 -36.9218 22499.2
 26 01 2015  00 58  -14.4187 17987.4 -13516.0 -36.9217 22499.5
 26 01 2015  00 59  -14.4187 17987.4 -13515.9 -36.9214 22499.4
 26 01 2015  01 00  -14.4184 17987.5 -13515.9 -36.9213 22499.6
 26 01 2015  01 01  -14.4182 17987.6 -13515.8 -36.9209 22499.6
 26 01 2015  01 02  -14.4181 17987.4 -13515.9 -36.9216 22499.4
 26 01 2015  01 03  -14.4179 17987.7 -13516.2 -36.9216 22499.9
 26 01 2015  01 04  -14.4176 17987.7 -13515.8 -36.9208 22499.6
 26 01 2015  01 05  -14.4170 17987.8 -13516.3 -36.9216 22500.1
 26 01 2015  01 06  -14.4162 17988.1 -13515.9 -36.9205 22500.0
 26 01 2015  01 07  -14.4157 17988.1 -13515.8 -36.9202 22499.9
 26 01 2015  01 08  -14.4155 17988.1 -13515.5 -36.9196 22499.8
 26 01 2015  01 09  -14.4149 17988.1 -13515.5 -36.9196 22499.9
 26 01 2015  01 10  -14.4145 17988.3 -13516.0 -36.9203 22500.3
 26 01 2015  01 11  -14.4139 17988.7 -13515.8 -36.9194 22500.4
 26 01 2015  01 12  -14.4132 17988.9 -13515.8 -36.9191 22500.6
 26 01 2015  01 13  -14.4125 17989.0 -13516.0 -36.9192 22500.8
 26 01 2015  01 14  -14.4108 17989.6 -13516.1 -36.9185 22501.4
 26 01 2015  01 15  -14.4096 17990.1 -13516.4 -36.9184 22501.9
 26 01 2015  01 16  -14.4094 17990.4 -13516.0 -36.9170 22501.9
 26 01 2015  01 17  -14.4086 17990.8 -13515.9 -36.9164 22502.2
 26 01 2015  01 18  -14.4078 17991.2 -13516.6 -36.9170 22502.9
 26 01 2015  01 19  -14.4068 17991.8 -13515.9 -36.9148 22503.0
 26 01 2015  01 20  -14.4056 17992.5 -13516.0 -36.9137 22503.6
 26 01 2015  01 21  -14.4046 17993.1 -13516.0 -36.9128 22504.1
 26 01 2015  01 22  -14.4040 17993.5 -13516.1 -36.9127 22504.5
 26 01 2015  01 23  -14.4034 17993.9 -13516.0 -36.9117 22504.8
 26 01 2015  01 24  -14.4026 17994.4 -13516.0 -36.9110 22505.1
 26 01 2015  01 25  -14.4019 17994.7 -13516.4 -36.9112 22505.6
 26 01 2015  01 26  -14.4017 17994.8 -13515.8 -36.9099 22505.4
 26 01 2015  01 27  -14.4016 17994.6 -13515.5 -36.9096 22504.9
 26 01 2015  01 28  -14.4016 17994.6 -13515.4 -36.9095 22504.9
 26 01 2015  01 29  -14.4008 17995.2 -13515.5 -36.9087 22505.5
 26 01 2015  01 30  -14.3998 17996.2 -13515.7 -36.9076 22506.3
 26 01 2015  01 31  -14.3988 17996.5 -13515.7 -36.9071 22506.7
 26 01 2015  01 32  -14.3988 17996.7 -13515.4 -36.9063 22506.6
 26 01 2015  01 33  -14.3985 17997.0 -13515.5 -36.9060 22506.9
 26 01 2015  01 34  -14.3978 17997.0 -13515.6 -36.9062 22507.0
 26 01 2015  01 35  -14.3981 17997.0 -13515.2 -36.9055 22506.7
 26 01 2015  01 36  -14.3983 17996.9 -13515.3 -36.9057 22506.7
 26 01 2015  01 37  -14.3979 17997.1 -13515.3 -36.9053 22506.8
 26 01 2015  01 38  -14.3978 17997.3 -13515.3 -36.9051 22507.0
 26 01 2015  01 39  -14.3977 17997.3 -13516.0 -36.9064 22507.4
 26 01 2015  01 40  -14.3977 17997.4 -13515.4 -36.9051 22507.2
 26 01 2015  01 41  -14.3978 17997.5 -13515.2 -36.9047 22507.1
 26 01 2015  01 42  -14.3978 17997.5 -13515.0 -36.9041 22507.0
 26 01 2015  01 43  -14.3982 17997.4 -13515.2 -36.9046 22507.0
 26 01 2015  01 44  -14.3984 17997.5 -13515.3 -36.9046 22507.2
 26 01 2015  01 45  -14.3985 17997.5 -13515.1 -36.9045 22507.0
 26 01 2015  01 46  -14.3984 17997.5 -13515.8 -36.9057 22507.5
 26 01 2015  01 47  -14.3984 17997.6 -13515.4 -36.9047 22507.3
 26 01 2015  01 48  -14.3980 17998.0 -13515.4 -36.9043 22507.6
 26 01 2015  01 49  -14.3979 17998.2 -13515.0 -36.9032 22507.6
 26 01 2015  01 50  -14.3979 17998.2 -13515.2 -36.9035 22507.7
 26 01 2015  01 51  -14.3980 17998.3 -13515.5 -36.9040 22507.9
 26 01 2015  01 52  -14.3981 17997.7 -13515.7 -36.9053 22507.6
 26 01 2015  01 53  -14.3986 17997.6 -13515.7 -36.9054 22507.5
 26 01 2015  01 54  -14.3991 17997.5 -13515.8 -36.9058 22507.5
 26 01 2015  01 55  -14.3994 17997.9 -13516.1 -36.9059 22508.0
 26 01 2015  01 56  -14.3992 17998.2 -13516.0 -36.9053 22508.2
 26 01 2015  01 57  -14.3993 17998.3 -13515.8 -36.9046 22508.1
 26 01 2015  01 58  -14.3997 17998.0 -13515.4 -36.9043 22507.6
 26 01 2015  01 59  -14.3998 17998.2 -13515.9 -36.9048 22508.1
 26 01 2015  02 00  -14.3994 17998.4 -13515.7 -36.9043 22508.1
 26 01 2015  02 01  -14.3991 17998.3 -13515.5 -36.9039 22507.9
 26 01 2015  02 02  -14.3988 17998.2 -13515.6 -36.9044 22507.9
 26 01 2015  02 03  -14.3988 17998.2 -13515.7 -36.9045 22508.0
 26 01 2015  02 04  -14.3990 17998.1 -13515.5 -36.9043 22507.8
 26 01 2015  02 05  -14.3991 17997.7 -13515.5 -36.9048 22507.5
 26 01 2015  02 06  -14.3996 17997.2 -13515.6 -36.9058 22507.1
 26 01 2015  02 07  -14.4003 17996.9 -13515.3 -36.9058 22506.7
 26 01 2015  02 08  -14.4006 17996.6 -13515.2 -36.9060 22506.4
 26 01 2015  02 09  -14.4005 17996.3 -13515.6 -36.9071 22506.4
 26 01 2015  02 10  -14.4004 17996.2 -13516.1 -36.9083 22506.6
 26 01 2015  02 11  -14.4004 17996.2 -13515.8 -36.9077 22506.5
 26 01 2015  02 12  -14.4004 17996.5 -13516.2 -36.9081 22506.9
 26 01 2015  02 13  -14.4006 17996.8 -13515.8 -36.9070 22506.9
 26 01 2015  02 14  -14.4009 17997.0 -13516.4 -36.9079 22507.4
 26 01 2015  02 15  -14.4011 17997.1 -13516.1 -36.9070 22507.4
 26 01 2015  02 16  -14.4016 17997.0 -13516.0 -36.9069 22507.2
 26 01 2015  02 17  -14.4019 17997.1 -13516.3 -36.9075 22507.5
 26 01 2015  02 18  -14.4023 17997.3 -13516.1 -36.9067 22507.4
 26 01 2015  02 19  -14.4024 17997.2 -13516.6 -36.9079 22507.8
 26 01 2015  02 20  -14.4031 17997.0 -13515.7 -36.9063 22507.0
 26 01 2015  02 21  -14.4034 17996.7 -13516.2 -36.9079 22507.1
 26 01 2015  02 22  -14.4040 17996.5 -13516.2 -36.9082 22506.9
 26 01 2015  02 23  -14.4042 17996.8 -13516.0 -36.9072 22507.1
 26 01 2015  02 24  -14.4047 17997.1 -13516.2 -36.9072 22507.5
 26 01 2015  02 25  -14.4053 17997.1 -13516.6 -36.9081 22507.7
 26 01 2015  02 26  -14.4056 17997.4 -13516.0 -36.9064 22507.6
 26 01 2015  02 27  -14.4052 17997.7 -13516.7 -36.9073 22508.2
 26 01 2015  02 28  -14.4049 17997.8 -13516.5 -36.9067 22508.2
 26 01 2015  02 29  -14.4057 17997.8 -13516.5 -36.9068 22508.1
 26 01 2015  02 30  -14.4060 17997.9 -13516.6 -36.9069 22508.3
 26 01 2015  02 31  -14.4069 17997.7 -13516.2 -36.9063 22507.9
 26 01 2015  02 32  -14.4072 17997.7 -13516.4 -36.9067 22508.0
 26 01 2015  02 33  -14.4073 17997.7 -13516.5 -36.9070 22508.1
 26 01 2015  02 34  -14.4079 17997.3 -13516.5 -36.9076 22507.7
 26 01 2015  02 35  -14.4083 17997.0 -13516.5 -36.9081 22507.5
 26 01 2015  02 36  -14.4083 17996.7 -13516.5 -36.9084 22507.2
 26 01 2015  02 37  -14.4085 17996.7 -13516.5 -36.9085 22507.2
 26 01 2015  02 38  -14.4086 17996.5 -13516.4 -36.9086 22507.0
 26 01 2015  02 39  -14.4088 17996.2 -13516.4 -36.9091 22506.8
 26 01 2015  02 40  -14.4083 17996.2 -13516.6 -36.9096 22506.9
 26 01 2015  02 41  -14.4087 17995.6 -13516.5 -36.9102 22506.4
 26 01 2015  02 42  -14.4086 17995.4 -13516.5 -36.9104 22506.2
 26 01 2015  02 43  -14.4093 17995.0 -13516.6 -36.9112 22506.0
 26 01 2015  02 44  -14.4099 17994.9 -13516.8 -36.9118 22506.0
 26 01 2015  02 45  -14.4106 17994.6 -13516.5 -36.9117 22505.6
 26 01 2015  02 46  -14.4113 17994.3 -13516.6 -36.9123 22505.4
 26 01 2015  02 47  -14.4119 17994.1 -13516.9 -36.9133 22505.4
 26 01 2015  02 48  -14.4120 17994.0 -13517.0 -36.9137 22505.4
 26 01 2015  02 49  -14.4126 17993.7 -13516.4 -36.9130 22504.8
 26 01 2015  02 50  -14.4134 17993.4 -13517.1 -36.9147 22504.9
 26 01 2015  02 51  -14.4136 17993.0 -13516.6 -36.9143 22504.3
 26 01 2015  02 52  -14.4140 17992.3 -13516.9 -36.9159 22504.0
 26 01 2015  02 53  -14.4139 17992.2 -13516.8 -36.9159 22503.9
 26 01 2015  02 54  -14.4138 17992.0 -13516.9 -36.9165 22503.8
 26 01 2015  02 55  -14.4139 17991.7 -13517.0 -36.9172 22503.6
 26 01 2015  02 56  -14.4146 17991.2 -13517.1 -36.9182 22503.2
 26 01 2015  02 57  -14.4149 17991.0 -13517.1 -36.9184 22503.1
 26 01 2015  02 58  -14.4154 17990.7 -13517.8 -36.9204 22503.2
 26 01 2015  02 59  -14.4158 17990.3 -13517.0 -36.9193 22502.5
 26 01 2015  03 00  -14.4158 17990.2 -13517.3 -36.9201 22502.5
 26 01 2015  03 01  -14.4167 17989.6 -13517.5 -36.9214 22502.2
 26 01 2015  03 02  -14.4181 17989.1 -13517.0 -36.9212 22501.5
 26 01 2015  03 03  -14.4184 17989.1 -13517.4 -36.9220 22501.7
 26 01 2015  03 04  -14.4192 17988.5 -13517.8 -36.9236 22501.5
 26 01 2015  03 05  -14.4205 17987.6 -13517.4 -36.9243 22500.6
 26 01 2015  03 06  -14.4219 17986.9 -13517.3 -36.9252 22499.9
 26 01 2015  03 07  -14.4237 17985.8 -13517.2 -36.9265 22498.9
 26 01 2015  03 08  -14.4245 17985.3 -13517.6 -36.9281 22498.8
 26 01 2015  03 09  -14.4255 17984.7 -13517.6 -36.9290 22498.3
 26 01 2015  03 10  -14.4256 17984.6 -13517.9 -36.9296 22498.4
 26 01 2015  03 11  -14.4259 17984.4 -13517.7 -36.9298 22498.1
 26 01 2015  03 12  -14.4258 17984.1 -13518.5 -36.9318 22498.4
 26 01 2015  03 13  -14.4266 17983.2 -13517.9 -36.9321 22497.3
 26 01 2015  03 14  -14.4273 17982.7 -13517.9 -36.9326 22496.9
 26 01 2015  03 15  -14.4280 17982.3 -13517.9 -36.9333 22496.6
 26 01 2015  03 16  -14.4289 17982.1 -13518.0 -36.9338 22496.5
 26 01 2015  03 17  -14.4297 17981.9 -13518.4 -36.9350 22496.6
 26 01 2015  03 18  -14.4307 17981.7 -13518.1 -36.9347 22496.2
 26 01 2015  03 19  -14.4312 17981.5 -13518.5 -36.9359 22496.3
 26 01 2015  03 20  -14.4318 17981.1 -13518.2 -36.9358 22495.8
 26 01 2015  03 21  -14.4317 17981.2 -13518.3 -36.9358 22495.9
 26 01 2015  03 22  -14.4317 17981.5 -13517.9 -36.9346 22495.9
 26 01 2015  03 23  -14.4314 17981.9 -13518.6 -36.9354 22496.6
 26 01 2015  03 24  -14.4312 17982.1 -13519.2 -36.9363 22497.3
 26 01 2015  03 25  -14.4308 17982.5 -13518.4 -36.9341 22497.1
 26 01 2015  03 26  -14.4304 17983.2 -13518.6 -36.9335 22497.7
 26 01 2015  03 27  -14.4303 17983.8 -13519.3 -36.9339 22498.7
 26 01 2015  03 28  -14.4308 17984.1 -13518.9 -36.9327 22498.7
 26 01 2015  03 29  -14.4313 17984.2 -13518.9 -36.9325 22498.7
 26 01 2015  03 30  -14.4324 17984.3 -13518.9 -36.9324 22498.8
 26 01 2015  03 31  -14.4336 17984.3 -13518.5 -36.9315 22498.6
 26 01 2015  03 32  -14.4344 17984.2 -13518.3 -36.9311 22498.3
 26 01 2015  03 33  -14.4348 17984.2 -13518.9 -36.9325 22498.7
 26 01 2015  03 34  -14.4355 17984.4 -13518.4 -36.9311 22498.5
 26 01 2015  03 35  -14.4359 17984.4 -13518.5 -36.9314 22498.6
 26 01 2015  03 36  -14.4360 17984.4 -13518.8 -36.9320 22498.8
 26 01 2015  03 37  -14.4362 17984.3 -13518.0 -36.9304 22498.2
 26 01 2015  03 38  -14.4357 17984.4 -13518.4 -36.9311 22498.6
 26 01 2015  03 39  -14.4352 17984.6 -13518.5 -36.9310 22498.8
 26 01 2015  03 40  -14.4352 17985.0 -13518.4 -36.9302 22499.1
 26 01 2015  03 41  -14.4349 17985.3 -13518.6 -36.9302 22499.4
 26 01 2015  03 42  -14.4345 17985.6 -13518.4 -36.9292 22499.6
 26 01 2015  03 43  -14.4341 17986.0 -13518.5 -36.9289 22499.9
 26 01 2015  03 44  -14.4337 17986.3 -13518.3 -36.9281 22500.1
 26 01 2015  03 45  -14.4339 17986.6 -13518.5 -36.9280 22500.4
 26 01 2015  03 46  -14.4341 17987.1 -13518.4 -36.9270 22500.8
 26 01 2015  03 47  -14.4340 17987.5 -13518.4 -36.9263 22501.1
 26 01 2015  03 48  -14.4338 17988.1 -13518.4 -36.9254 22501.5
 26 01 2015  03 49  -14.4340 17988.4 -13518.4 -36.9249 22501.8
 26 01 2015  03 50  -14.4342 17988.8 -13518.1 -36.9239 22501.9
 26 01 2015  03 51  -14.4344 17989.2 -13518.3 -36.9236 22502.4
 26 01 2015  03 52  -14.4341 17989.8 -13518.1 -36.9223 22502.8
 26 01 2015  03 53  -14.4335 17990.4 -13518.1 -36.9214 22503.2
 26 01 2015  03 54  -14.4329 17990.9 -13518.1 -36.9206 22503.6
 26 01 2015  03 55  -14.4326 17991.3 -13517.8 -36.9195 22503.7
 26 01 2015  03 56  -14.4323 17991.7 -13517.9 -36.9189 22504.1
 26 01 2015  03 57  -14.4320 17992.0 -13517.9 -36.9185 22504.4
 26 01 2015  03 58  -14.4318 17992.3 -13518.2 -36.9185 22504.7
 26 01 2015  03 59  -14.4316 17992.6 -13517.7 -36.9171 22504.7
 26 01 2015  04 00  -14.4313 17992.5 -13517.9 -36.9178 22504.7
 26 01 2015  04 01  -14.4310 17992.6 -13517.6 -36.9168 22504.7
 26 01 2015  04 02  -14.4307 17992.9 -13517.7 -36.9167 22504.9
 26 01 2015  04 03  -14.4301 17993.3 -13518.1 -36.9169 22505.5
 26 01 2015  04 04  -14.4297 17993.6 -13517.3 -36.9149 22505.3
 26 01 2015  04 05  -14.4291 17993.9 -13517.6 -36.9150 22505.6
 26 01 2015  04 06  -14.4281 17994.3 -13517.2 -36.9136 22505.8
 26 01 2015  04 07  -14.4275 17994.3 -13517.2 -36.9135 22505.8
 26 01 2015  04 08  -14.4268 17994.6 -13517.1 -36.9130 22505.9
 26 01 2015  04 09  -14.4264 17994.9 -13517.1 -36.9126 22506.2
 26 01 2015  04 10  -14.4266 17994.8 -13516.8 -36.9119 22505.9
 26 01 2015  04 11  -14.4270 17994.8 -13516.8 -36.9121 22505.9
 26 01 2015  04 12  -14.4270 17995.0 -13516.9 -36.9118 22506.1
 26 01 2015  04 13  -14.4271 17995.0 -13516.9 -36.9119 22506.2
 26 01 2015  04 14  -14.4270 17995.1 -13516.6 -36.9111 22506.1
 26 01 2015  04 15  -14.4268 17995.3 -13516.7 -36.9110 22506.2
 26 01 2015  04 16  -14.4266 17995.5 -13516.5 -36.9104 22506.3
 26 01 2015  04 17  -14.4270 17995.6 -13516.4 -36.9100 22506.3
 26 01 2015  04 18  -14.4273 17995.6 -13517.2 -36.9115 22506.8
 26 01 2015  04 19  -14.4280 17995.6 -13517.1 -36.9113 22506.8
 26 01 2015  04 20  -14.4290 17995.4 -13517.1 -36.9118 22506.6
 26 01 2015  04 21  -14.4298 17995.3 -13517.0 -36.9116 22506.5
 26 01 2015  04 22  -14.4305 17995.2 -13517.1 -36.9119 22506.5
 26 01 2015  04 23  -14.4313 17995.1 -13516.4 -36.9107 22505.9
 26 01 2015  04 24  -14.4317 17995.1 -13517.2 -36.9123 22506.4
 26 01 2015  04 25  -14.4324 17995.0 -13516.8 -36.9118 22506.0
 26 01 2015  04 26  -14.4330 17994.9 -13516.9 -36.9122 22506.1
 26 01 2015  04 27  -14.4336 17994.8 -13517.2 -36.9127 22506.1
 26 01 2015  04 28  -14.4345 17994.7 -13516.5 -36.9116 22505.6
 26 01 2015  04 29  -14.4354 17994.5 -13516.2 -36.9113 22505.3
 26 01 2015  04 30  -14.4359 17994.3 -13516.8 -36.9127 22505.5
 26 01 2015  04 31  -14.4367 17994.2 -13516.9 -36.9132 22505.5
 26 01 2015  04 32  -14.4379 17993.8 -13516.4 -36.9127 22504.9
 26 01 2015  04 33  -14.4390 17993.4 -13516.8 -36.9141 22504.8
 26 01 2015  04 34  -14.4403 17993.1 -13516.2 -36.9133 22504.2
 26 01 2015  04 35  -14.4414 17992.9 -13516.5 -36.9143 22504.3
 26 01 2015  04 36  -14.4424 17992.9 -13516.4 -36.9140 22504.2
 26 01 2015  04 37  -14.4431 17993.2 -13516.5 -36.9137 22504.5
 26 01 2015  04 38  -14.4439 17993.7 -13516.5 -36.9132 22504.9
 26 01 2015  04 39  -14.4443 17994.4 -13517.1 -36.9132 22505.8
 26 01 2015  04 40  -14.4445 17995.2 -13517.3 -36.9124 22506.5
 26 01 2015  04 41  -14.4450 17995.6 -13516.7 -36.9105 22506.5
 26 01 2015  04 42  -14.4452 17996.2 -13517.0 -36.9102 22507.1
 26 01 2015  04 43  -14.4456 17996.4 -13517.1 -36.9101 22507.4
 26 01 2015  04 44  -14.4460 17996.6 -13517.0 -36.9096 22507.4
 26 01 2015  04 45  -14.4465 17996.9 -13516.8 -36.9088 22507.6
 26 01 2015  04 46  -14.4463 17997.4 -13517.1 -36.9085 22508.2
 26 01 2015  04 47  -14.4465 17997.6 -13517.2 -36.9084 22508.4
 26 01 2015  04 48  -14.4465 17997.8 -13516.7 -36.9070 22508.3
 26 01 2015  04 49  -14.4465 17998.0 -13516.8 -36.9070 22508.4
 26 01 2015  04 50  -14.4464 17998.0 -13516.5 -36.9064 22508.3
 26 01 2015  04 51  -14.4462 17997.6 -13516.1 -36.9063 22507.7
 26 01 2015  04 52  -14.4459 17997.1 -13515.9 -36.9067 22507.3
 26 01 2015  04 53  -14.4453 17996.8 -13516.2 -36.9078 22507.2
 26 01 2015  04 54  -14.4447 17996.6 -13516.0 -36.9077 22506.9
 26 01 2015  04 55  -14.4441 17996.5 -13516.1 -36.9080 22506.9
 26 01 2015  04 56  -14.4436 17996.4 -13516.2 -36.9083 22506.8
 26 01 2015  04 57  -14.4429 17996.5 -13516.2 -36.9081 22507.0
 26 01 2015  04 58  -14.4425 17996.6 -13516.3 -36.9081 22507.1
 26 01 2015  04 59  -14.4422 17996.8 -13516.0 -36.9073 22507.0
 26 01 2015  05 00  -14.4418 17997.0 -13516.6 -36.9082 22507.5
 26 01 2015  05 01  -14.4416 17997.2 -13516.5 -36.9077 22507.6
 26 01 2015  05 02  -14.4413 17997.2 -13516.3 -36.9073 22507.6
 26 01 2015  05 03  -14.4410 17997.4 -13516.1 -36.9066 22507.5
 26 01 2015  05 04  -14.4404 17997.5 -13516.0 -36.9062 22507.6
 26 01 2015  05 05  -14.4397 17997.6 -13515.9 -36.9058 22507.6
 26 01 2015  05 06  -14.4389 17997.9 -13516.2 -36.9061 22508.1
 26 01 2015  05 07  -14.4381 17997.9 -13516.5 -36.9065 22508.2
 26 01 2015  05 08  -14.4377 17998.2 -13515.9 -36.9050 22508.1
 26 01 2015  05 09  -14.4374 17998.3 -13516.4 -36.9057 22508.5
 26 01 2015  05 10  -14.4372 17998.3 -13516.2 -36.9054 22508.3
 26 01 2015  05 11  -14.4369 17998.0 -13516.1 -36.9057 22508.1
 26 01 2015  05 12  -14.4365 17997.8 -13516.0 -36.9057 22507.8
 26 01 2015  05 13  -14.4361 17997.5 -13516.3 -36.9068 22507.7
 26 01 2015  05 14  -14.4358 17997.3 -13516.2 -36.9069 22507.5
