SAO MARTINHO DA SERRA EMBRACE-06 <307> 1 Min. Reported data

 DD MM YYYY  HH MM   D(Deg)  H(nT)   Z(nT)   I(Deg)   F(nT)

 03 11 2015  00 00  -14.4650 17953.5 -13560.1 -37.0632 22499.0
 03 11 2015  00 01  -14.4652 17953.4 -13559.8 -37.0629 22498.7
 03 11 2015  00 02  -14.4653 17953.3 -13559.7 -37.0629 22498.6
 03 11 2015  00 03  -14.4654 17953.2 -13559.7 -37.0629 22498.5
 03 11 2015  00 04  -14.4657 17953.1 -13559.4 -37.0625 22498.3
 03 11 2015  00 05  -14.4658 17953.0 -13559.6 -37.0630 22498.3
 03 11 2015  00 06  -14.4663 17952.7 -13560.0 -37.0643 22498.2
 03 11 2015  00 07  -14.4669 17952.4 -13559.3 -37.0634 22497.6
 03 11 2015  00 08  -14.4672 17952.1 -13560.3 -37.0659 22498.0
 03 11 2015  00 09  -14.4680 17951.8 -13559.6 -37.0649 22497.3
 03 11 2015  00 10  -14.4689 17951.4 -13559.4 -37.0652 22496.9
 03 11 2015  00 11  -14.4694 17951.1 -13559.1 -37.0650 22496.5
 03 11 2015  00 12  -14.4695 17951.0 -13560.1 -37.0670 22497.0
 03 11 2015  00 13  -14.4701 17951.0 -13559.4 -37.0658 22496.6
 03 11 2015  00 14  -14.4703 17951.0 -13560.0 -37.0670 22497.0
 03 11 2015  00 15  -14.4705 17951.0 -13559.7 -37.0663 22496.8
 03 11 2015  00 16  -14.4704 17951.2 -13560.0 -37.0667 22497.1
 03 11 2015  00 17  -14.4704 17951.2 -13560.0 -37.0667 22497.1
 03 11 2015  00 18  -14.4704 17951.1 -13560.1 -37.0671 22497.1
 03 11 2015  00 19  -14.4706 17951.1 -13560.1 -37.0670 22497.0
 03 11 2015  00 20  -14.4707 17951.1 -13560.0 -37.0668 22497.1
 03 11 2015  00 21  -14.4710 17951.1 -13560.2 -37.0672 22497.1
 03 11 2015  00 22  -14.4712 17951.0 -13560.3 -37.0674 22497.1
 03 11 2015  00 23  -14.4715 17951.0 -13560.1 -37.0672 22497.0
 03 11 2015  00 24  -14.4714 17951.0 -13560.4 -37.0677 22497.2
 03 11 2015  00 25  -14.4715 17951.1 -13559.9 -37.0666 22497.0
 03 11 2015  00 26  -14.4715 17951.1 -13560.6 -37.0680 22497.4
 03 11 2015  00 27  -14.4716 17951.2 -13560.0 -37.0666 22497.1
 03 11 2015  00 28  -14.4714 17951.4 -13560.5 -37.0674 22497.6
 03 11 2015  00 29  -14.4712 17951.7 -13560.1 -37.0661 22497.6
 03 11 2015  00 30  -14.4711 17951.9 -13560.7 -37.0670 22498.1
 03 11 2015  00 31  -14.4714 17952.0 -13560.1 -37.0656 22497.9
 03 11 2015  00 32  -14.4713 17952.4 -13560.4 -37.0657 22498.3
 03 11 2015  00 33  -14.4710 17952.6 -13560.4 -37.0653 22498.5
 03 11 2015  00 34  -14.4706 17952.9 -13560.7 -37.0654 22498.8
 03 11 2015  00 35  -14.4704 17953.1 -13560.5 -37.0647 22498.9
 03 11 2015  00 36  -14.4702 17953.2 -13560.6 -37.0648 22499.1
 03 11 2015  00 37  -14.4701 17953.3 -13560.5 -37.0645 22499.0
 03 11 2015  00 38  -14.4701 17953.3 -13560.5 -37.0644 22499.1
 03 11 2015  00 39  -14.4703 17953.4 -13560.5 -37.0642 22499.1
 03 11 2015  00 40  -14.4704 17953.4 -13560.6 -37.0643 22499.2
 03 11 2015  00 41  -14.4705 17953.5 -13560.3 -37.0636 22499.1
 03 11 2015  00 42  -14.4707 17953.6 -13560.2 -37.0634 22499.1
 03 11 2015  00 43  -14.4709 17953.6 -13560.5 -37.0640 22499.3
 03 11 2015  00 44  -14.4707 17953.9 -13560.6 -37.0637 22499.6
 03 11 2015  00 45  -14.4708 17954.0 -13560.4 -37.0632 22499.6
 03 11 2015  00 46  -14.4708 17954.2 -13560.5 -37.0632 22499.8
 03 11 2015  00 47  -14.4708 17954.4 -13560.5 -37.0627 22499.9
 03 11 2015  00 48  -14.4709 17954.6 -13560.3 -37.0619 22500.0
 03 11 2015  00 49  -14.4711 17954.8 -13560.3 -37.0617 22500.1
 03 11 2015  00 50  -14.4710 17955.0 -13560.5 -37.0618 22500.5
 03 11 2015  00 51  -14.4709 17955.2 -13560.9 -37.0622 22500.8
 03 11 2015  00 52  -14.4707 17955.4 -13561.1 -37.0623 22501.1
 03 11 2015  00 53  -14.4708 17955.6 -13560.8 -37.0615 22501.1
 03 11 2015  00 54  -14.4705 17955.8 -13560.5 -37.0606 22501.1
 03 11 2015  00 55  -14.4706 17955.8 -13560.4 -37.0605 22501.0
 03 11 2015  00 56  -14.4707 17955.8 -13560.6 -37.0607 22501.1
 03 11 2015  00 57  -14.4710 17955.8 -13560.1 -37.0597 22500.9
 03 11 2015  00 58  -14.4711 17955.8 -13560.5 -37.0605 22501.1
 03 11 2015  00 59  -14.4714 17955.9 -13560.3 -37.0602 22501.0
 03 11 2015  01 00  -14.4716 17955.9 -13560.4 -37.0602 22501.1
 03 11 2015  01 01  -14.4715 17956.2 -13560.5 -37.0600 22501.4
 03 11 2015  01 02  -14.4712 17956.7 -13560.5 -37.0593 22501.8
 03 11 2015  01 03  -14.4712 17957.0 -13560.4 -37.0586 22502.0
 03 11 2015  01 04  -14.4712 17957.3 -13560.5 -37.0583 22502.2
 03 11 2015  01 05  -14.4709 17957.6 -13560.5 -37.0579 22502.5
 03 11 2015  01 06  -14.4707 17957.6 -13560.5 -37.0579 22502.5
 03 11 2015  01 07  -14.4703 17957.8 -13560.4 -37.0573 22502.6
 03 11 2015  01 08  -14.4700 17957.9 -13560.1 -37.0567 22502.5
 03 11 2015  01 09  -14.4695 17957.9 -13560.5 -37.0573 22502.8
 03 11 2015  01 10  -14.4690 17958.1 -13560.4 -37.0568 22502.8
 03 11 2015  01 11  -14.4684 17958.3 -13560.4 -37.0565 22503.0
 03 11 2015  01 12  -14.4682 17958.6 -13560.6 -37.0565 22503.4
 03 11 2015  01 13  -14.4686 17958.8 -13560.4 -37.0558 22503.4
 03 11 2015  01 14  -14.4690 17958.7 -13560.2 -37.0555 22503.2
 03 11 2015  01 15  -14.4690 17958.6 -13560.4 -37.0561 22503.2
 03 11 2015  01 16  -14.4692 17958.3 -13560.2 -37.0561 22502.9
 03 11 2015  01 17  -14.4690 17958.1 -13560.0 -37.0561 22502.6
 03 11 2015  01 18  -14.4688 17957.9 -13560.1 -37.0565 22502.5
 03 11 2015  01 19  -14.4686 17957.7 -13560.1 -37.0569 22502.4
 03 11 2015  01 20  -14.4683 17957.5 -13560.2 -37.0574 22502.2
 03 11 2015  01 21  -14.4680 17957.4 -13560.1 -37.0574 22502.1
 03 11 2015  01 22  -14.4677 17957.4 -13560.2 -37.0576 22502.1
 03 11 2015  01 23  -14.4675 17957.4 -13560.1 -37.0575 22502.1
 03 11 2015  01 24  -14.4676 17957.2 -13560.4 -37.0582 22502.1
 03 11 2015  01 25  -14.4676 17957.1 -13560.3 -37.0582 22502.0
 03 11 2015  01 26  -14.4676 17957.0 -13560.6 -37.0590 22502.1
 03 11 2015  01 27  -14.4675 17957.0 -13560.4 -37.0584 22502.0
 03 11 2015  01 28  -14.4673 17957.1 -13560.8 -37.0592 22502.3
 03 11 2015  01 29  -14.4673 17957.3 -13560.5 -37.0584 22502.2
 03 11 2015  01 30  -14.4675 17957.2 -13560.8 -37.0589 22502.3
 03 11 2015  01 31  -14.4674 17957.4 -13560.6 -37.0584 22502.4
 03 11 2015  01 32  -14.4670 17957.5 -13560.7 -37.0584 22502.6
 03 11 2015  01 33  -14.4661 17958.0 -13560.8 -37.0579 22503.0
 03 11 2015  01 34  -14.4648 17958.8 -13561.0 -37.0570 22503.8
 03 11 2015  01 35  -14.4631 17959.7 -13561.2 -37.0560 22504.6
 03 11 2015  01 36  -14.4604 17962.3 -13561.6 -37.0529 22506.9
 03 11 2015  01 37  -14.4584 17966.4 -13562.2 -37.0477 22510.5
 03 11 2015  01 38  -14.4553 17971.6 -13562.8 -37.0411 22515.1
 03 11 2015  01 39  -14.4528 17975.7 -13563.0 -37.0351 22518.4
 03 11 2015  01 40  -14.4510 17977.5 -13562.3 -37.0310 22519.4
 03 11 2015  01 41  -14.4500 17976.9 -13561.3 -37.0299 22518.4
 03 11 2015  01 42  -14.4498 17975.2 -13559.8 -37.0295 22516.1
 03 11 2015  01 43  -14.4496 17973.4 -13560.0 -37.0327 22514.8
 03 11 2015  01 44  -14.4496 17971.4 -13559.3 -37.0343 22512.8
 03 11 2015  01 45  -14.4498 17969.5 -13558.8 -37.0360 22511.0
 03 11 2015  01 46  -14.4500 17968.1 -13559.1 -37.0389 22510.0
 03 11 2015  01 47  -14.4501 17967.5 -13559.5 -37.0405 22509.8
 03 11 2015  01 48  -14.4494 17968.0 -13559.6 -37.0400 22510.2
 03 11 2015  01 49  -14.4486 17969.0 -13559.7 -37.0389 22511.1
 03 11 2015  01 50  -14.4472 17970.5 -13560.6 -37.0384 22512.8
 03 11 2015  01 51  -14.4461 17971.7 -13560.1 -37.0353 22513.5
 03 11 2015  01 52  -14.4452 17972.7 -13560.6 -37.0349 22514.6
 03 11 2015  01 53  -14.4450 17972.9 -13560.1 -37.0334 22514.5
 03 11 2015  01 54  -14.4447 17974.6 -13560.4 -37.0317 22516.0
 03 11 2015  01 55  -14.4450 17971.5 -13559.8 -37.0351 22513.1
 03 11 2015  01 56  -14.4449 17973.5 -13560.5 -37.0333 22515.2
 03 11 2015  01 57  -14.4449 17972.8 -13560.5 -37.0345 22514.6
 03 11 2015  01 58  -14.4442 17971.6 -13560.0 -37.0353 22513.3
 03 11 2015  01 59  -14.4453 17973.4 -13560.5 -37.0335 22515.1
 03 11 2015  02 00  -14.4450 17970.3 -13560.1 -37.0376 22512.4
 03 11 2015  02 01  -14.4458 17973.3 -13560.8 -37.0344 22515.3
 03 11 2015  02 02  -14.4467 17970.7 -13560.0 -37.0367 22512.7
 03 11 2015  02 03  -14.4471 17972.2 -13560.6 -37.0356 22514.1
 03 11 2015  02 04  -14.4482 17970.7 -13560.3 -37.0373 22512.9
 03 11 2015  02 05  -14.4490 17970.2 -13559.9 -37.0371 22512.2
 03 11 2015  02 06  -14.4491 17969.2 -13560.0 -37.0391 22511.5
 03 11 2015  02 07  -14.4506 17968.4 -13560.5 -37.0413 22511.1
 03 11 2015  02 08  -14.4515 17967.8 -13560.2 -37.0416 22510.5
 03 11 2015  02 09  -14.4525 17966.9 -13560.5 -37.0436 22509.9
 03 11 2015  02 10  -14.4531 17966.1 -13560.2 -37.0441 22509.1
 03 11 2015  02 11  -14.4533 17965.7 -13560.8 -37.0459 22509.2
 03 11 2015  02 12  -14.4538 17964.9 -13560.4 -37.0465 22508.3
 03 11 2015  02 13  -14.4540 17965.6 -13561.1 -37.0468 22509.3
 03 11 2015  02 14  -14.4557 17964.4 -13561.1 -37.0485 22508.3
 03 11 2015  02 15  -14.4564 17964.8 -13561.2 -37.0482 22508.6
 03 11 2015  02 16  -14.4571 17963.7 -13561.4 -37.0502 22507.9
 03 11 2015  02 17  -14.4576 17963.6 -13561.4 -37.0505 22507.8
 03 11 2015  02 18  -14.4582 17963.2 -13561.3 -37.0509 22507.5
 03 11 2015  02 19  -14.4587 17962.9 -13561.0 -37.0507 22507.0
 03 11 2015  02 20  -14.4589 17962.7 -13561.3 -37.0516 22507.0
 03 11 2015  02 21  -14.4593 17962.2 -13561.2 -37.0522 22506.6
 03 11 2015  02 22  -14.4593 17960.9 -13561.8 -37.0555 22505.9
 03 11 2015  02 23  -14.4594 17961.0 -13561.6 -37.0549 22505.9
 03 11 2015  02 24  -14.4593 17960.1 -13561.5 -37.0560 22505.2
 03 11 2015  02 25  -14.4595 17960.8 -13561.9 -37.0559 22505.9
 03 11 2015  02 26  -14.4601 17959.9 -13562.4 -37.0581 22505.5
 03 11 2015  02 27  -14.4611 17958.6 -13561.9 -37.0592 22504.2
 03 11 2015  02 28  -14.4617 17957.0 -13561.9 -37.0615 22502.9
 03 11 2015  02 29  -14.4629 17955.9 -13561.9 -37.0634 22502.0
 03 11 2015  02 30  -14.4640 17955.0 -13562.0 -37.0649 22501.4
 03 11 2015  02 31  -14.4652 17954.5 -13562.0 -37.0656 22501.0
 03 11 2015  02 32  -14.4662 17954.4 -13562.5 -37.0667 22501.1
 03 11 2015  02 33  -14.4670 17954.6 -13562.6 -37.0666 22501.4
 03 11 2015  02 34  -14.4674 17954.7 -13562.9 -37.0672 22501.6
 03 11 2015  02 35  -14.4675 17955.6 -13563.8 -37.0676 22502.9
 03 11 2015  02 36  -14.4679 17956.6 -13563.5 -37.0656 22503.5
 03 11 2015  02 37  -14.4684 17957.3 -13563.1 -37.0635 22503.8
 03 11 2015  02 38  -14.4683 17957.2 -13564.0 -37.0655 22504.3
 03 11 2015  02 39  -14.4682 17956.8 -13563.9 -37.0660 22503.9
 03 11 2015  02 40  -14.4688 17956.3 -13563.5 -37.0660 22503.2
 03 11 2015  02 41  -14.4690 17956.3 -13563.3 -37.0654 22503.1
 03 11 2015  02 42  -14.4692 17956.8 -13563.4 -37.0650 22503.6
 03 11 2015  02 43  -14.4699 17957.2 -13563.0 -37.0636 22503.7
 03 11 2015  02 44  -14.4696 17957.8 -13563.7 -37.0641 22504.6
 03 11 2015  02 45  -14.4690 17958.6 -13563.6 -37.0625 22505.2
 03 11 2015  02 46  -14.4686 17959.1 -13563.9 -37.0625 22505.8
 03 11 2015  02 47  -14.4681 17959.3 -13564.2 -37.0628 22506.1
 03 11 2015  02 48  -14.4682 17959.0 -13563.5 -37.0617 22505.5
 03 11 2015  02 49  -14.4684 17958.5 -13563.7 -37.0630 22505.1
 03 11 2015  02 50  -14.4686 17958.1 -13563.5 -37.0631 22504.7
 03 11 2015  02 51  -14.4682 17958.3 -13563.4 -37.0626 22504.8
 03 11 2015  02 52  -14.4680 17958.8 -13563.7 -37.0625 22505.4
 03 11 2015  02 53  -14.4670 17958.9 -13563.3 -37.0615 22505.3
 03 11 2015  02 54  -14.4655 17959.1 -13563.8 -37.0622 22505.7
 03 11 2015  02 55  -14.4648 17959.1 -13563.6 -37.0619 22505.6
 03 11 2015  02 56  -14.4645 17958.9 -13564.2 -37.0633 22505.7
 03 11 2015  02 57  -14.4639 17958.9 -13564.0 -37.0630 22505.6
 03 11 2015  02 58  -14.4644 17959.0 -13564.1 -37.0631 22505.7
 03 11 2015  02 59  -14.4657 17958.8 -13563.7 -37.0624 22505.4
 03 11 2015  03 00  -14.4673 17958.3 -13563.6 -37.0630 22504.9
 03 11 2015  03 01  -14.4680 17957.5 -13564.0 -37.0652 22504.5
 03 11 2015  03 02  -14.4687 17957.0 -13563.4 -37.0648 22503.8
 03 11 2015  03 03  -14.4688 17957.4 -13563.9 -37.0649 22504.4
 03 11 2015  03 04  -14.4696 17957.3 -13564.0 -37.0652 22504.4
 03 11 2015  03 05  -14.4697 17957.1 -13564.5 -37.0666 22504.5
 03 11 2015  03 06  -14.4699 17956.6 -13564.4 -37.0675 22504.0
 03 11 2015  03 07  -14.4703 17955.9 -13563.7 -37.0669 22503.1
 03 11 2015  03 08  -14.4709 17955.6 -13565.1 -37.0704 22503.7
 03 11 2015  03 09  -14.4715 17955.5 -13565.2 -37.0705 22503.6
 03 11 2015  03 10  -14.4715 17955.8 -13564.1 -37.0679 22503.3
 03 11 2015  03 11  -14.4719 17956.1 -13565.1 -37.0695 22504.1
 03 11 2015  03 12  -14.4730 17955.8 -13564.7 -37.0691 22503.6
 03 11 2015  03 13  -14.4742 17955.1 -13564.4 -37.0696 22502.9
 03 11 2015  03 14  -14.4755 17954.5 -13564.9 -37.0715 22502.7
 03 11 2015  03 15  -14.4770 17954.2 -13564.6 -37.0712 22502.3
 03 11 2015  03 16  -14.4780 17953.8 -13565.1 -37.0731 22502.2
 03 11 2015  03 17  -14.4798 17953.4 -13564.7 -37.0727 22501.6
 03 11 2015  03 18  -14.4818 17953.0 -13565.0 -37.0740 22501.6
 03 11 2015  03 19  -14.4839 17952.7 -13565.2 -37.0749 22501.4
 03 11 2015  03 20  -14.4856 17951.9 -13564.9 -37.0755 22500.6
 03 11 2015  03 21  -14.4870 17951.4 -13565.0 -37.0765 22500.2
 03 11 2015  03 22  -14.4887 17951.3 -13565.2 -37.0770 22500.3
 03 11 2015  03 23  -14.4904 17951.1 -13565.1 -37.0771 22500.1
 03 11 2015  03 24  -14.4923 17950.4 -13565.7 -37.0794 22499.9
 03 11 2015  03 25  -14.4947 17950.1 -13565.4 -37.0793 22499.5
 03 11 2015  03 26  -14.4963 17950.1 -13566.1 -37.0808 22499.9
 03 11 2015  03 27  -14.4980 17949.7 -13565.6 -37.0803 22499.2
 03 11 2015  03 28  -14.4997 17949.8 -13566.0 -37.0809 22499.6
 03 11 2015  03 29  -14.5016 17950.0 -13565.8 -37.0803 22499.6
 03 11 2015  03 30  -14.5033 17950.7 -13566.0 -37.0796 22500.3
 03 11 2015  03 31  -14.5047 17950.8 -13566.1 -37.0796 22500.5
 03 11 2015  03 32  -14.5063 17951.1 -13565.5 -37.0780 22500.3
 03 11 2015  03 33  -14.5080 17950.6 -13565.6 -37.0788 22500.0
 03 11 2015  03 34  -14.5101 17948.6 -13565.4 -37.0815 22498.3
 03 11 2015  03 35  -14.5130 17946.2 -13565.1 -37.0846 22496.2
 03 11 2015  03 36  -14.5147 17944.0 -13565.3 -37.0884 22494.5
 03 11 2015  03 37  -14.5171 17942.6 -13564.5 -37.0890 22493.0
 03 11 2015  03 38  -14.5197 17942.2 -13565.0 -37.0906 22493.0
 03 11 2015  03 39  -14.5212 17942.2 -13566.2 -37.0930 22493.7
 03 11 2015  03 40  -14.5217 17943.3 -13566.7 -37.0924 22494.8
 03 11 2015  03 41  -14.5227 17944.9 -13567.2 -37.0908 22496.4
 03 11 2015  03 42  -14.5236 17945.7 -13566.6 -37.0884 22496.7
 03 11 2015  03 43  -14.5241 17946.1 -13566.7 -37.0880 22497.0
 03 11 2015  03 44  -14.5242 17946.5 -13566.3 -37.0867 22497.1
 03 11 2015  03 45  -14.5243 17946.6 -13566.8 -37.0876 22497.5
 03 11 2015  03 46  -14.5248 17946.9 -13566.6 -37.0868 22497.7
 03 11 2015  03 47  -14.5248 17947.4 -13566.4 -37.0856 22497.9
 03 11 2015  03 48  -14.5242 17948.3 -13567.3 -37.0859 22499.2
 03 11 2015  03 49  -14.5243 17949.5 -13566.2 -37.0818 22499.5
 03 11 2015  03 50  -14.5240 17951.8 -13566.6 -37.0791 22501.6
 03 11 2015  03 51  -14.5242 17953.1 -13566.9 -37.0779 22502.8
 03 11 2015  03 52  -14.5240 17953.5 -13567.6 -37.0784 22503.5
 03 11 2015  03 53  -14.5237 17953.3 -13567.3 -37.0782 22503.1
 03 11 2015  03 54  -14.5241 17952.7 -13565.9 -37.0762 22501.9
 03 11 2015  03 55  -14.5243 17953.0 -13565.6 -37.0751 22501.9
 03 11 2015  03 56  -14.5236 17953.3 -13566.1 -37.0759 22502.4
 03 11 2015  03 57  -14.5238 17953.4 -13565.6 -37.0747 22502.3
 03 11 2015  03 58  -14.5240 17953.9 -13566.8 -37.0764 22503.4
 03 11 2015  03 59  -14.5245 17954.0 -13565.7 -37.0739 22502.7
 03 11 2015  04 00  -14.5252 17954.0 -13565.4 -37.0733 22502.6
 03 11 2015  04 01  -14.5251 17954.4 -13566.4 -37.0748 22503.5
 03 11 2015  04 02  -14.5255 17954.9 -13565.6 -37.0725 22503.4
 03 11 2015  04 03  -14.5257 17955.1 -13565.8 -37.0724 22503.7
 03 11 2015  04 04  -14.5266 17955.4 -13565.8 -37.0721 22503.9
 03 11 2015  04 05  -14.5278 17955.4 -13565.9 -37.0723 22504.0
 03 11 2015  04 06  -14.5293 17954.7 -13565.7 -37.0728 22503.3
 03 11 2015  04 07  -14.5304 17954.7 -13565.9 -37.0733 22503.5
 03 11 2015  04 08  -14.5313 17955.8 -13565.8 -37.0714 22504.3
 03 11 2015  04 09  -14.5318 17956.0 -13566.0 -37.0716 22504.5
 03 11 2015  04 10  -14.5325 17956.1 -13565.6 -37.0704 22504.3
 03 11 2015  04 11  -14.5329 17957.1 -13566.1 -37.0699 22505.4
 03 11 2015  04 12  -14.5327 17957.5 -13565.9 -37.0690 22505.7
 03 11 2015  04 13  -14.5328 17957.8 -13566.0 -37.0686 22506.0
 03 11 2015  04 14  -14.5332 17959.2 -13565.7 -37.0659 22506.9
 03 11 2015  04 15  -14.5329 17960.5 -13566.2 -37.0648 22508.3
 03 11 2015  04 16  -14.5333 17961.2 -13566.3 -37.0640 22508.9
 03 11 2015  04 17  -14.5336 17961.5 -13565.4 -37.0619 22508.6
 03 11 2015  04 18  -14.5342 17961.2 -13565.2 -37.0619 22508.3
 03 11 2015  04 19  -14.5347 17960.8 -13565.7 -37.0635 22508.1
 03 11 2015  04 20  -14.5352 17960.8 -13565.0 -37.0620 22507.8
 03 11 2015  04 21  -14.5354 17962.9 -13564.9 -37.0587 22509.4
 03 11 2015  04 22  -14.5347 17964.4 -13565.9 -37.0584 22511.2
 03 11 2015  04 23  -14.5345 17965.0 -13565.8 -37.0571 22511.6
 03 11 2015  04 24  -14.5349 17965.3 -13565.5 -37.0562 22511.7
 03 11 2015  04 25  -14.5354 17965.0 -13565.4 -37.0564 22511.4
 03 11 2015  04 26  -14.5361 17964.3 -13565.3 -37.0574 22510.8
 03 11 2015  04 27  -14.5370 17963.4 -13565.1 -37.0583 22509.8
 03 11 2015  04 28  -14.5381 17963.0 -13564.3 -37.0574 22509.1
 03 11 2015  04 29  -14.5387 17962.6 -13565.0 -37.0593 22509.3
 03 11 2015  04 30  -14.5388 17963.7 -13564.6 -37.0569 22509.8
 03 11 2015  04 31  -14.5381 17966.2 -13565.1 -37.0539 22512.1
 03 11 2015  04 32  -14.5360 17967.4 -13565.4 -37.0528 22513.3
 03 11 2015  04 33  -14.5351 17968.1 -13565.6 -37.0520 22513.9
 03 11 2015  04 34  -14.5344 17967.8 -13565.0 -37.0513 22513.3
 03 11 2015  04 35  -14.5339 17966.6 -13565.0 -37.0530 22512.4
 03 11 2015  04 36  -14.5342 17965.8 -13564.5 -37.0533 22511.5
 03 11 2015  04 37  -14.5342 17964.7 -13564.4 -37.0550 22510.5
 03 11 2015  04 38  -14.5351 17964.2 -13564.2 -37.0553 22510.0
 03 11 2015  04 39  -14.5357 17963.3 -13564.4 -37.0570 22509.5
 03 11 2015  04 40  -14.5369 17962.7 -13564.4 -37.0579 22508.9
 03 11 2015  04 41  -14.5373 17962.4 -13564.4 -37.0583 22508.7
 03 11 2015  04 42  -14.5373 17962.2 -13564.6 -37.0591 22508.6
 03 11 2015  04 43  -14.5371 17962.2 -13564.9 -37.0597 22508.8
 03 11 2015  04 44  -14.5371 17962.0 -13564.7 -37.0596 22508.6
 03 11 2015  04 45  -14.5371 17960.8 -13564.5 -37.0610 22507.5
 03 11 2015  04 46  -14.5372 17960.0 -13564.7 -37.0625 22507.0
 03 11 2015  04 47  -14.5374 17959.6 -13565.4 -37.0646 22507.1
 03 11 2015  04 48  -14.5377 17959.7 -13564.7 -37.0631 22506.7
 03 11 2015  04 49  -14.5374 17960.0 -13565.9 -37.0651 22507.7
 03 11 2015  04 50  -14.5376 17960.1 -13565.3 -37.0637 22507.4
 03 11 2015  04 51  -14.5386 17959.8 -13565.5 -37.0646 22507.3
 03 11 2015  04 52  -14.5390 17959.8 -13565.5 -37.0647 22507.2
 03 11 2015  04 53  -14.5402 17959.2 -13564.9 -37.0642 22506.4
 03 11 2015  04 54  -14.5413 17958.8 -13564.9 -37.0648 22506.1
 03 11 2015  04 55  -14.5416 17959.1 -13565.5 -37.0657 22506.7
 03 11 2015  04 56  -14.5426 17959.6 -13566.4 -37.0669 22507.6
 03 11 2015  04 57  -14.5436 17959.6 -13565.2 -37.0642 22506.9
 03 11 2015  04 58  -14.5448 17959.7 -13565.6 -37.0650 22507.2
 03 11 2015  04 59  -14.5463 17959.1 -13565.2 -37.0651 22506.5
 03 11 2015  05 00  -14.5473 17959.2 -13565.3 -37.0652 22506.7
 03 11 2015  05 01  -14.5476 17958.8 -13565.4 -37.0661 22506.4
 03 11 2015  05 02  -14.5493 17959.4 -13565.9 -37.0661 22507.1
 03 11 2015  05 03  -14.5501 17959.3 -13566.3 -37.0670 22507.3
 03 11 2015  05 04  -14.5516 17958.8 -13566.1 -37.0672 22506.8
 03 11 2015  05 05  -14.5533 17959.6 -13566.1 -37.0662 22507.5
 03 11 2015  05 06  -14.5531 17959.0 -13565.6 -37.0660 22506.7
 03 11 2015  05 07  -14.5535 17957.1 -13565.5 -37.0687 22505.1
 03 11 2015  05 08  -14.5566 17955.0 -13564.9 -37.0706 22503.1
 03 11 2015  05 09  -14.5586 17954.2 -13566.0 -37.0743 22503.1
 03 11 2015  05 10  -14.5594 17951.4 -13565.2 -37.0769 22500.4
 03 11 2015  05 11  -14.5615 17949.3 -13564.5 -37.0787 22498.3
 03 11 2015  05 12  -14.5629 17948.2 -13565.8 -37.0830 22498.2
 03 11 2015  05 13  -14.5638 17948.1 -13565.6 -37.0827 22497.9
 03 11 2015  05 14  -14.5659 17947.8 -13566.2 -37.0844 22498.1
