SAO MARTINHO DA SERRA EMBRACE-06 <310> 1 Min. Reported data

 DD MM YYYY  HH MM   D(Deg)  H(nT)   Z(nT)   I(Deg)   F(nT)

 06 11 2015  00 00  -14.5356 17911.5 -13564.5 -37.1368 22468.2
 06 11 2015  00 01  -14.5354 17911.7 -13564.5 -37.1366 22468.3
 06 11 2015  00 02  -14.5361 17912.3 -13564.7 -37.1359 22468.9
 06 11 2015  00 03  -14.5367 17912.8 -13565.1 -37.1361 22469.5
 06 11 2015  00 04  -14.5371 17913.2 -13565.5 -37.1362 22470.1
 06 11 2015  00 05  -14.5381 17913.8 -13564.7 -37.1337 22470.1
 06 11 2015  00 06  -14.5388 17914.6 -13565.4 -37.1338 22471.2
 06 11 2015  00 07  -14.5396 17915.5 -13565.4 -37.1325 22471.8
 06 11 2015  00 08  -14.5403 17916.1 -13565.2 -37.1312 22472.3
 06 11 2015  00 09  -14.5410 17916.9 -13565.1 -37.1297 22472.8
 06 11 2015  00 10  -14.5412 17917.9 -13565.3 -37.1287 22473.8
 06 11 2015  00 11  -14.5416 17918.9 -13564.8 -37.1260 22474.2
 06 11 2015  00 12  -14.5417 17919.7 -13564.7 -37.1247 22474.8
 06 11 2015  00 13  -14.5420 17920.7 -13564.8 -37.1233 22475.6
 06 11 2015  00 14  -14.5423 17921.2 -13564.6 -37.1221 22475.9
 06 11 2015  00 15  -14.5426 17921.6 -13564.3 -37.1210 22476.1
 06 11 2015  00 16  -14.5428 17921.9 -13564.2 -37.1201 22476.2
 06 11 2015  00 17  -14.5427 17922.4 -13564.1 -37.1193 22476.6
 06 11 2015  00 18  -14.5427 17922.7 -13564.0 -37.1184 22476.8
 06 11 2015  00 19  -14.5423 17923.0 -13563.9 -37.1179 22477.0
 06 11 2015  00 20  -14.5421 17923.0 -13564.1 -37.1184 22477.0
 06 11 2015  00 21  -14.5415 17923.1 -13563.9 -37.1178 22477.1
 06 11 2015  00 22  -14.5409 17923.0 -13563.8 -37.1177 22476.9
 06 11 2015  00 23  -14.5400 17922.8 -13563.7 -37.1178 22476.7
 06 11 2015  00 24  -14.5392 17922.7 -13563.6 -37.1177 22476.5
 06 11 2015  00 25  -14.5387 17922.3 -13563.7 -37.1184 22476.3
 06 11 2015  00 26  -14.5384 17922.1 -13563.2 -37.1179 22475.8
 06 11 2015  00 27  -14.5379 17921.7 -13563.5 -37.1191 22475.7
 06 11 2015  00 28  -14.5377 17921.0 -13563.3 -37.1198 22475.0
 06 11 2015  00 29  -14.5371 17920.5 -13563.8 -37.1214 22474.9
 06 11 2015  00 30  -14.5363 17920.4 -13564.0 -37.1222 22475.0
 06 11 2015  00 31  -14.5365 17919.9 -13564.1 -37.1230 22474.6
 06 11 2015  00 32  -14.5364 17919.7 -13563.7 -37.1226 22474.2
 06 11 2015  00 33  -14.5368 17919.2 -13563.9 -37.1237 22473.9
 06 11 2015  00 34  -14.5372 17918.7 -13564.0 -37.1247 22473.6
 06 11 2015  00 35  -14.5376 17918.3 -13563.8 -37.1248 22473.1
 06 11 2015  00 36  -14.5377 17918.0 -13564.1 -37.1259 22473.1
 06 11 2015  00 37  -14.5377 17917.8 -13564.1 -37.1263 22472.9
 06 11 2015  00 38  -14.5378 17917.5 -13564.3 -37.1272 22472.8
 06 11 2015  00 39  -14.5379 17917.3 -13564.7 -37.1283 22472.9
 06 11 2015  00 40  -14.5381 17917.2 -13564.3 -37.1276 22472.6
 06 11 2015  00 41  -14.5382 17917.2 -13564.6 -37.1283 22472.7
 06 11 2015  00 42  -14.5382 17917.1 -13564.3 -37.1279 22472.5
 06 11 2015  00 43  -14.5382 17917.0 -13564.4 -37.1281 22472.5
 06 11 2015  00 44  -14.5383 17917.1 -13564.8 -37.1288 22472.8
 06 11 2015  00 45  -14.5385 17917.2 -13564.6 -37.1282 22472.8
 06 11 2015  00 46  -14.5387 17917.4 -13564.8 -37.1283 22473.0
 06 11 2015  00 47  -14.5387 17917.5 -13564.8 -37.1282 22473.1
 06 11 2015  00 48  -14.5386 17917.6 -13564.8 -37.1281 22473.2
 06 11 2015  00 49  -14.5385 17917.7 -13564.9 -37.1281 22473.3
 06 11 2015  00 50  -14.5384 17917.6 -13564.8 -37.1280 22473.2
 06 11 2015  00 51  -14.5379 17917.7 -13564.8 -37.1278 22473.3
 06 11 2015  00 52  -14.5374 17917.7 -13564.9 -37.1280 22473.3
 06 11 2015  00 53  -14.5367 17917.5 -13564.9 -37.1284 22473.1
 06 11 2015  00 54  -14.5362 17917.4 -13564.9 -37.1286 22473.1
 06 11 2015  00 55  -14.5359 17917.2 -13564.8 -37.1286 22472.9
 06 11 2015  00 56  -14.5356 17917.0 -13564.8 -37.1291 22472.7
 06 11 2015  00 57  -14.5352 17916.7 -13564.8 -37.1293 22472.5
 06 11 2015  00 58  -14.5346 17916.8 -13564.8 -37.1294 22472.6
 06 11 2015  00 59  -14.5341 17916.9 -13565.1 -37.1298 22472.8
 06 11 2015  01 00  -14.5334 17916.7 -13564.9 -37.1296 22472.6
 06 11 2015  01 01  -14.5328 17916.5 -13565.0 -37.1300 22472.5
 06 11 2015  01 02  -14.5322 17916.5 -13565.1 -37.1303 22472.5
 06 11 2015  01 03  -14.5320 17916.4 -13565.0 -37.1302 22472.3
 06 11 2015  01 04  -14.5316 17916.5 -13565.1 -37.1303 22472.5
 06 11 2015  01 05  -14.5315 17916.6 -13565.1 -37.1301 22472.5
 06 11 2015  01 06  -14.5310 17916.8 -13565.2 -37.1302 22472.8
 06 11 2015  01 07  -14.5306 17916.9 -13565.2 -37.1300 22472.9
 06 11 2015  01 08  -14.5302 17917.0 -13565.1 -37.1295 22472.9
 06 11 2015  01 09  -14.5296 17917.1 -13565.2 -37.1295 22473.1
 06 11 2015  01 10  -14.5290 17917.3 -13565.4 -37.1298 22473.4
 06 11 2015  01 11  -14.5285 17917.5 -13565.2 -37.1291 22473.3
 06 11 2015  01 12  -14.5279 17917.9 -13565.2 -37.1284 22473.7
 06 11 2015  01 13  -14.5272 17918.1 -13565.2 -37.1280 22473.9
 06 11 2015  01 14  -14.5266 17918.1 -13565.2 -37.1280 22473.8
 06 11 2015  01 15  -14.5260 17918.2 -13565.2 -37.1279 22473.9
 06 11 2015  01 16  -14.5256 17918.4 -13565.2 -37.1276 22474.1
 06 11 2015  01 17  -14.5250 17918.6 -13565.6 -37.1281 22474.5
 06 11 2015  01 18  -14.5247 17918.8 -13565.3 -37.1272 22474.4
 06 11 2015  01 19  -14.5243 17919.0 -13565.0 -37.1262 22474.5
 06 11 2015  01 20  -14.5232 17919.5 -13565.2 -37.1260 22475.0
 06 11 2015  01 21  -14.5223 17919.8 -13565.4 -37.1258 22475.3
 06 11 2015  01 22  -14.5212 17920.1 -13565.3 -37.1253 22475.5
 06 11 2015  01 23  -14.5201 17920.2 -13565.2 -37.1248 22475.5
 06 11 2015  01 24  -14.5189 17920.5 -13565.1 -37.1242 22475.7
 06 11 2015  01 25  -14.5179 17921.0 -13565.3 -37.1237 22476.2
 06 11 2015  01 26  -14.5170 17921.1 -13565.6 -37.1242 22476.5
 06 11 2015  01 27  -14.5160 17921.6 -13565.3 -37.1229 22476.7
 06 11 2015  01 28  -14.5150 17922.2 -13565.1 -37.1215 22477.0
 06 11 2015  01 29  -14.5143 17922.6 -13565.6 -37.1219 22477.6
 06 11 2015  01 30  -14.5133 17923.2 -13565.3 -37.1203 22478.0
 06 11 2015  01 31  -14.5123 17924.0 -13565.7 -37.1200 22478.9
 06 11 2015  01 32  -14.5118 17924.4 -13565.6 -37.1191 22479.0
 06 11 2015  01 33  -14.5112 17924.7 -13565.5 -37.1185 22479.3
 06 11 2015  01 34  -14.5109 17924.9 -13565.8 -37.1190 22479.6
 06 11 2015  01 35  -14.5104 17925.2 -13565.4 -37.1176 22479.6
 06 11 2015  01 36  -14.5098 17925.3 -13565.4 -37.1174 22479.7
 06 11 2015  01 37  -14.5093 17925.3 -13565.6 -37.1178 22479.8
 06 11 2015  01 38  -14.5092 17925.4 -13565.3 -37.1170 22479.7
 06 11 2015  01 39  -14.5089 17925.5 -13565.5 -37.1173 22480.0
 06 11 2015  01 40  -14.5090 17925.6 -13565.3 -37.1166 22479.9
 06 11 2015  01 41  -14.5091 17925.5 -13565.1 -37.1165 22479.7
 06 11 2015  01 42  -14.5089 17925.5 -13565.5 -37.1172 22479.9
 06 11 2015  01 43  -14.5092 17925.5 -13564.9 -37.1161 22479.5
 06 11 2015  01 44  -14.5097 17925.3 -13564.7 -37.1160 22479.2
 06 11 2015  01 45  -14.5104 17924.8 -13564.5 -37.1162 22478.7
 06 11 2015  01 46  -14.5111 17924.4 -13564.6 -37.1171 22478.5
 06 11 2015  01 47  -14.5117 17924.0 -13564.8 -37.1182 22478.2
 06 11 2015  01 48  -14.5123 17923.8 -13565.1 -37.1191 22478.3
 06 11 2015  01 49  -14.5130 17923.7 -13565.2 -37.1195 22478.3
 06 11 2015  01 50  -14.5136 17923.5 -13564.6 -37.1187 22477.7
 06 11 2015  01 51  -14.5140 17923.3 -13565.2 -37.1201 22478.0
 06 11 2015  01 52  -14.5145 17923.2 -13565.2 -37.1203 22477.9
 06 11 2015  01 53  -14.5151 17923.1 -13564.8 -37.1197 22477.6
 06 11 2015  01 54  -14.5154 17923.3 -13564.8 -37.1193 22477.7
 06 11 2015  01 55  -14.5156 17923.3 -13565.6 -37.1208 22478.2
 06 11 2015  01 56  -14.5159 17923.4 -13565.3 -37.1201 22478.1
 06 11 2015  01 57  -14.5162 17923.1 -13565.2 -37.1202 22477.8
 06 11 2015  01 58  -14.5163 17923.1 -13565.2 -37.1204 22477.8
 06 11 2015  01 59  -14.5166 17923.0 -13564.9 -37.1200 22477.6
 06 11 2015  02 00  -14.5169 17922.9 -13565.7 -37.1217 22477.9
 06 11 2015  02 01  -14.5177 17922.8 -13565.1 -37.1206 22477.5
 06 11 2015  02 02  -14.5178 17922.8 -13565.0 -37.1204 22477.4
 06 11 2015  02 03  -14.5179 17922.6 -13565.2 -37.1210 22477.4
 06 11 2015  02 04  -14.5181 17922.5 -13565.2 -37.1213 22477.4
 06 11 2015  02 05  -14.5180 17922.7 -13565.3 -37.1212 22477.5
 06 11 2015  02 06  -14.5179 17922.8 -13565.4 -37.1212 22477.7
 06 11 2015  02 07  -14.5181 17922.7 -13565.1 -37.1206 22477.4
 06 11 2015  02 08  -14.5181 17922.7 -13565.5 -37.1214 22477.7
 06 11 2015  02 09  -14.5184 17922.9 -13565.3 -37.1208 22477.7
 06 11 2015  02 10  -14.5185 17922.9 -13565.2 -37.1208 22477.6
 06 11 2015  02 11  -14.5188 17922.9 -13565.3 -37.1209 22477.7
 06 11 2015  02 12  -14.5191 17922.5 -13565.2 -37.1211 22477.3
 06 11 2015  02 13  -14.5191 17922.4 -13565.2 -37.1216 22477.3
 06 11 2015  02 14  -14.5193 17922.3 -13565.2 -37.1215 22477.2
 06 11 2015  02 15  -14.5195 17922.2 -13565.3 -37.1219 22477.2
 06 11 2015  02 16  -14.5198 17922.2 -13565.2 -37.1217 22477.1
 06 11 2015  02 17  -14.5199 17922.4 -13565.5 -37.1221 22477.4
 06 11 2015  02 18  -14.5202 17922.5 -13565.5 -37.1219 22477.5
 06 11 2015  02 19  -14.5205 17922.5 -13565.5 -37.1219 22477.5
 06 11 2015  02 20  -14.5206 17922.5 -13565.5 -37.1219 22477.5
 06 11 2015  02 21  -14.5206 17922.6 -13565.6 -37.1220 22477.6
 06 11 2015  02 22  -14.5208 17922.3 -13565.4 -37.1220 22477.3
 06 11 2015  02 23  -14.5209 17922.2 -13565.5 -37.1223 22477.3
 06 11 2015  02 24  -14.5210 17922.2 -13565.6 -37.1227 22477.3
 06 11 2015  02 25  -14.5210 17922.1 -13565.4 -37.1223 22477.2
 06 11 2015  02 26  -14.5208 17922.0 -13565.1 -37.1218 22476.9
 06 11 2015  02 27  -14.5203 17922.0 -13565.6 -37.1229 22477.2
 06 11 2015  02 28  -14.5202 17922.1 -13565.2 -37.1219 22477.0
 06 11 2015  02 29  -14.5196 17922.0 -13565.7 -37.1231 22477.2
 06 11 2015  02 30  -14.5195 17922.0 -13565.6 -37.1228 22477.2
 06 11 2015  02 31  -14.5193 17922.0 -13566.0 -37.1236 22477.4
 06 11 2015  02 32  -14.5191 17922.0 -13566.0 -37.1236 22477.4
 06 11 2015  02 33  -14.5192 17922.0 -13565.8 -37.1233 22477.4
 06 11 2015  02 34  -14.5193 17922.1 -13566.1 -37.1236 22477.6
 06 11 2015  02 35  -14.5196 17922.2 -13566.0 -37.1234 22477.6
 06 11 2015  02 36  -14.5197 17922.3 -13566.0 -37.1233 22477.7
 06 11 2015  02 37  -14.5194 17922.3 -13566.2 -37.1236 22477.7
 06 11 2015  02 38  -14.5194 17922.2 -13565.8 -37.1231 22477.4
 06 11 2015  02 39  -14.5191 17922.0 -13565.8 -37.1232 22477.3
 06 11 2015  02 40  -14.5184 17921.8 -13565.7 -37.1235 22477.1
 06 11 2015  02 41  -14.5178 17921.6 -13565.5 -37.1233 22476.8
 06 11 2015  02 42  -14.5174 17921.5 -13566.1 -37.1246 22477.1
 06 11 2015  02 43  -14.5174 17921.3 -13566.4 -37.1255 22477.1
 06 11 2015  02 44  -14.5179 17921.2 -13565.9 -37.1246 22476.7
 06 11 2015  02 45  -14.5178 17921.1 -13566.9 -37.1269 22477.3
 06 11 2015  02 46  -14.5185 17920.8 -13566.3 -37.1261 22476.6
 06 11 2015  02 47  -14.5188 17920.7 -13565.8 -37.1254 22476.3
 06 11 2015  02 48  -14.5188 17920.5 -13566.5 -37.1271 22476.5
 06 11 2015  02 49  -14.5190 17920.2 -13566.3 -37.1270 22476.2
 06 11 2015  02 50  -14.5190 17920.1 -13566.5 -37.1277 22476.2
 06 11 2015  02 51  -14.5188 17919.8 -13566.5 -37.1280 22476.0
 06 11 2015  02 52  -14.5187 17919.7 -13566.3 -37.1279 22475.8
 06 11 2015  02 53  -14.5186 17919.7 -13566.6 -37.1284 22475.9
 06 11 2015  02 54  -14.5189 17919.6 -13566.4 -37.1283 22475.8
 06 11 2015  02 55  -14.5191 17919.5 -13566.4 -37.1283 22475.7
 06 11 2015  02 56  -14.5190 17919.3 -13567.0 -37.1298 22475.9
 06 11 2015  02 57  -14.5189 17919.2 -13566.7 -37.1294 22475.6
 06 11 2015  02 58  -14.5187 17919.3 -13567.4 -37.1307 22476.1
 06 11 2015  02 59  -14.5188 17919.4 -13566.9 -37.1294 22475.9
 06 11 2015  03 00  -14.5188 17919.6 -13566.7 -37.1289 22475.9
 06 11 2015  03 01  -14.5187 17919.7 -13567.2 -37.1297 22476.3
 06 11 2015  03 02  -14.5185 17919.7 -13567.4 -37.1302 22476.5
 06 11 2015  03 03  -14.5186 17919.9 -13566.8 -37.1286 22476.2
 06 11 2015  03 04  -14.5184 17919.7 -13566.9 -37.1290 22476.2
 06 11 2015  03 05  -14.5181 17920.0 -13566.9 -37.1287 22476.3
 06 11 2015  03 06  -14.5179 17920.2 -13567.0 -37.1285 22476.5
 06 11 2015  03 07  -14.5179 17920.1 -13566.9 -37.1284 22476.5
 06 11 2015  03 08  -14.5178 17920.3 -13566.9 -37.1282 22476.6
 06 11 2015  03 09  -14.5178 17920.2 -13567.0 -37.1285 22476.6
 06 11 2015  03 10  -14.5177 17920.2 -13566.9 -37.1283 22476.5
 06 11 2015  03 11  -14.5177 17920.4 -13567.0 -37.1282 22476.7
 06 11 2015  03 12  -14.5179 17920.3 -13567.1 -37.1285 22476.7
 06 11 2015  03 13  -14.5177 17920.3 -13566.9 -37.1280 22476.6
 06 11 2015  03 14  -14.5176 17920.5 -13567.0 -37.1281 22476.9
 06 11 2015  03 15  -14.5175 17920.7 -13566.9 -37.1277 22476.9
 06 11 2015  03 16  -14.5174 17920.8 -13567.1 -37.1279 22477.1
 06 11 2015  03 17  -14.5175 17920.8 -13566.9 -37.1274 22477.1
 06 11 2015  03 18  -14.5172 17920.8 -13567.1 -37.1278 22477.1
 06 11 2015  03 19  -14.5170 17920.8 -13566.9 -37.1273 22477.0
 06 11 2015  03 20  -14.5167 17920.6 -13567.1 -37.1280 22477.0
 06 11 2015  03 21  -14.5164 17920.7 -13566.7 -37.1272 22476.8
 06 11 2015  03 22  -14.5162 17920.7 -13567.0 -37.1277 22477.0
 06 11 2015  03 23  -14.5160 17920.9 -13567.3 -37.1282 22477.3
 06 11 2015  03 24  -14.5161 17921.0 -13566.6 -37.1266 22477.0
 06 11 2015  03 25  -14.5160 17921.0 -13567.0 -37.1273 22477.2
 06 11 2015  03 26  -14.5161 17921.1 -13566.6 -37.1263 22477.0
 06 11 2015  03 27  -14.5163 17921.0 -13566.5 -37.1262 22476.9
 06 11 2015  03 28  -14.5163 17921.1 -13567.0 -37.1271 22477.3
 06 11 2015  03 29  -14.5162 17921.1 -13567.3 -37.1277 22477.5
 06 11 2015  03 30  -14.5166 17920.9 -13567.0 -37.1274 22477.2
 06 11 2015  03 31  -14.5169 17920.9 -13566.6 -37.1265 22476.9
 06 11 2015  03 32  -14.5170 17920.9 -13566.2 -37.1257 22476.7
 06 11 2015  03 33  -14.5172 17920.9 -13566.8 -37.1271 22477.1
 06 11 2015  03 34  -14.5172 17920.9 -13567.0 -37.1273 22477.2
 06 11 2015  03 35  -14.5173 17920.8 -13566.7 -37.1269 22476.8
 06 11 2015  03 36  -14.5171 17920.7 -13566.5 -37.1266 22476.7
 06 11 2015  03 37  -14.5168 17920.5 -13566.6 -37.1272 22476.6
 06 11 2015  03 38  -14.5160 17920.5 -13567.1 -37.1282 22476.9
 06 11 2015  03 39  -14.5159 17920.6 -13566.7 -37.1271 22476.7
 06 11 2015  03 40  -14.5159 17920.8 -13567.0 -37.1275 22477.1
 06 11 2015  03 41  -14.5157 17921.1 -13566.9 -37.1268 22477.3
 06 11 2015  03 42  -14.5155 17921.2 -13567.1 -37.1272 22477.5
 06 11 2015  03 43  -14.5152 17921.5 -13566.8 -37.1262 22477.5
 06 11 2015  03 44  -14.5152 17921.5 -13567.0 -37.1265 22477.6
 06 11 2015  03 45  -14.5154 17921.7 -13567.1 -37.1265 22477.8
 06 11 2015  03 46  -14.5157 17921.6 -13567.2 -37.1268 22477.8
 06 11 2015  03 47  -14.5157 17921.7 -13567.0 -37.1262 22477.8
 06 11 2015  03 48  -14.5156 17921.7 -13567.0 -37.1261 22477.7
 06 11 2015  03 49  -14.5154 17921.7 -13566.8 -37.1259 22477.7
 06 11 2015  03 50  -14.5150 17921.9 -13566.8 -37.1255 22477.8
 06 11 2015  03 51  -14.5148 17921.8 -13566.9 -37.1258 22477.8
 06 11 2015  03 52  -14.5143 17922.0 -13566.8 -37.1252 22477.9
 06 11 2015  03 53  -14.5143 17922.1 -13566.8 -37.1252 22478.0
 06 11 2015  03 54  -14.5145 17921.9 -13566.8 -37.1254 22477.9
 06 11 2015  03 55  -14.5147 17922.0 -13567.0 -37.1257 22478.0
 06 11 2015  03 56  -14.5148 17922.0 -13566.7 -37.1252 22477.8
 06 11 2015  03 57  -14.5148 17921.9 -13566.7 -37.1253 22477.8
 06 11 2015  03 58  -14.5147 17921.8 -13566.8 -37.1257 22477.7
 06 11 2015  03 59  -14.5149 17921.7 -13567.0 -37.1262 22477.8
 06 11 2015  04 00  -14.5157 17921.5 -13566.9 -37.1263 22477.6
 06 11 2015  04 01  -14.5167 17921.2 -13566.8 -37.1266 22477.3
 06 11 2015  04 02  -14.5175 17920.9 -13566.9 -37.1271 22477.1
 06 11 2015  04 03  -14.5182 17920.8 -13566.8 -37.1270 22476.9
 06 11 2015  04 04  -14.5185 17920.7 -13566.9 -37.1275 22476.9
 06 11 2015  04 05  -14.5187 17920.8 -13567.0 -37.1274 22477.1
 06 11 2015  04 06  -14.5188 17921.0 -13567.0 -37.1273 22477.2
 06 11 2015  04 07  -14.5187 17921.2 -13567.0 -37.1270 22477.4
 06 11 2015  04 08  -14.5185 17921.4 -13567.3 -37.1273 22477.8
 06 11 2015  04 09  -14.5181 17921.4 -13567.2 -37.1269 22477.7
 06 11 2015  04 10  -14.5175 17921.5 -13567.4 -37.1274 22477.9
 06 11 2015  04 11  -14.5175 17921.4 -13567.1 -37.1268 22477.6
 06 11 2015  04 12  -14.5177 17921.5 -13567.1 -37.1268 22477.7
 06 11 2015  04 13  -14.5177 17921.6 -13567.2 -37.1268 22477.9
 06 11 2015  04 14  -14.5178 17921.6 -13567.3 -37.1269 22477.9
 06 11 2015  04 15  -14.5181 17921.6 -13567.0 -37.1263 22477.7
 06 11 2015  04 16  -14.5184 17921.8 -13567.3 -37.1265 22478.1
 06 11 2015  04 17  -14.5191 17921.8 -13567.1 -37.1263 22477.9
 06 11 2015  04 18  -14.5198 17921.7 -13567.4 -37.1271 22478.1
 06 11 2015  04 19  -14.5208 17921.7 -13567.0 -37.1262 22477.7
 06 11 2015  04 20  -14.5215 17921.6 -13567.3 -37.1270 22477.9
 06 11 2015  04 21  -14.5223 17921.6 -13566.9 -37.1261 22477.6
 06 11 2015  04 22  -14.5228 17921.6 -13566.8 -37.1258 22477.6
 06 11 2015  04 23  -14.5232 17921.7 -13566.9 -37.1259 22477.7
 06 11 2015  04 24  -14.5236 17921.9 -13567.2 -37.1263 22478.0
 06 11 2015  04 25  -14.5241 17922.0 -13566.7 -37.1252 22477.8
 06 11 2015  04 26  -14.5243 17922.0 -13567.7 -37.1272 22478.4
 06 11 2015  04 27  -14.5245 17922.1 -13567.4 -37.1263 22478.4
 06 11 2015  04 28  -14.5246 17922.2 -13567.4 -37.1262 22478.5
 06 11 2015  04 29  -14.5248 17922.2 -13567.5 -37.1263 22478.5
 06 11 2015  04 30  -14.5250 17922.3 -13567.3 -37.1260 22478.4
 06 11 2015  04 31  -14.5251 17922.2 -13567.2 -37.1259 22478.3
 06 11 2015  04 32  -14.5249 17922.3 -13567.4 -37.1261 22478.5
 06 11 2015  04 33  -14.5249 17922.2 -13567.3 -37.1261 22478.4
 06 11 2015  04 34  -14.5247 17922.1 -13567.4 -37.1264 22478.3
 06 11 2015  04 35  -14.5248 17922.0 -13567.3 -37.1264 22478.2
 06 11 2015  04 36  -14.5249 17922.1 -13567.4 -37.1265 22478.3
 06 11 2015  04 37  -14.5251 17922.1 -13567.3 -37.1263 22478.3
 06 11 2015  04 38  -14.5253 17922.1 -13567.3 -37.1260 22478.3
 06 11 2015  04 39  -14.5255 17922.1 -13567.1 -37.1258 22478.1
 06 11 2015  04 40  -14.5256 17922.1 -13567.6 -37.1269 22478.5
 06 11 2015  04 41  -14.5260 17922.1 -13567.3 -37.1263 22478.3
 06 11 2015  04 42  -14.5262 17922.2 -13567.6 -37.1266 22478.5
 06 11 2015  04 43  -14.5265 17922.3 -13567.7 -37.1268 22478.7
 06 11 2015  04 44  -14.5269 17922.2 -13567.3 -37.1261 22478.4
 06 11 2015  04 45  -14.5272 17922.2 -13567.4 -37.1262 22478.4
 06 11 2015  04 46  -14.5273 17922.2 -13567.8 -37.1269 22478.7
 06 11 2015  04 47  -14.5277 17922.2 -13567.3 -37.1260 22478.4
 06 11 2015  04 48  -14.5278 17922.4 -13567.6 -37.1264 22478.7
 06 11 2015  04 49  -14.5280 17922.3 -13567.8 -37.1268 22478.7
 06 11 2015  04 50  -14.5278 17922.4 -13567.5 -37.1260 22478.6
 06 11 2015  04 51  -14.5277 17922.4 -13567.5 -37.1261 22478.6
 06 11 2015  04 52  -14.5275 17922.5 -13567.8 -37.1265 22478.9
 06 11 2015  04 53  -14.5273 17922.6 -13567.6 -37.1259 22478.9
 06 11 2015  04 54  -14.5272 17922.6 -13567.6 -37.1261 22478.9
 06 11 2015  04 55  -14.5272 17922.4 -13567.7 -37.1265 22478.8
 06 11 2015  04 56  -14.5273 17922.4 -13567.1 -37.1254 22478.4
 06 11 2015  04 57  -14.5273 17922.3 -13567.4 -37.1261 22478.6
 06 11 2015  04 58  -14.5275 17922.2 -13567.3 -37.1260 22478.4
 06 11 2015  04 59  -14.5275 17922.1 -13567.9 -37.1273 22478.7
 06 11 2015  05 00  -14.5276 17922.0 -13567.6 -37.1269 22478.4
 06 11 2015  05 01  -14.5277 17922.0 -13567.6 -37.1270 22478.4
 06 11 2015  05 02  -14.5278 17922.0 -13567.7 -37.1270 22478.5
 06 11 2015  05 03  -14.5281 17921.9 -13567.5 -37.1269 22478.3
 06 11 2015  05 04  -14.5281 17922.1 -13567.7 -37.1269 22478.5
 06 11 2015  05 05  -14.5282 17922.1 -13567.7 -37.1270 22478.5
 06 11 2015  05 06  -14.5285 17922.0 -13567.5 -37.1266 22478.3
 06 11 2015  05 07  -14.5286 17922.1 -13567.6 -37.1267 22478.4
 06 11 2015  05 08  -14.5288 17922.0 -13567.6 -37.1268 22478.4
 06 11 2015  05 09  -14.5289 17922.1 -13567.6 -37.1269 22478.4
 06 11 2015  05 10  -14.5292 17922.0 -13567.7 -37.1270 22478.4
 06 11 2015  05 11  -14.5295 17921.9 -13567.5 -37.1269 22478.3
 06 11 2015  05 12  -14.5297 17922.0 -13567.6 -37.1271 22478.4
 06 11 2015  05 13  -14.5299 17922.2 -13567.3 -37.1261 22478.4
 06 11 2015  05 14  -14.5299 17922.6 -13567.6 -37.1260 22478.9
