SAO MARTINHO DA SERRA EMBRACE-06 <163> 1 Min. Reported data

 DD MM YYYY  HH MM   D(Deg)  H(nT)   Z(nT)   I(Deg)   F(nT)

 12 06 2015  00 00  -14.4907 17956.6 -13542.0 -37.0216 22490.5
 12 06 2015  00 01  -14.4904 17956.7 -13542.5 -37.0226 22490.9
 12 06 2015  00 02  -14.4902 17956.8 -13542.1 -37.0217 22490.8
 12 06 2015  00 03  -14.4897 17956.8 -13541.9 -37.0212 22490.6
 12 06 2015  00 04  -14.4893 17956.9 -13542.3 -37.0220 22491.0
 12 06 2015  00 05  -14.4890 17957.2 -13542.0 -37.0208 22491.0
 12 06 2015  00 06  -14.4893 17957.2 -13541.7 -37.0202 22490.8
 12 06 2015  00 07  -14.4892 17957.1 -13542.4 -37.0218 22491.2
 12 06 2015  00 08  -14.4891 17956.9 -13542.1 -37.0216 22490.8
 12 06 2015  00 09  -14.4887 17956.8 -13542.7 -37.0227 22491.1
 12 06 2015  00 10  -14.4887 17956.8 -13542.0 -37.0215 22490.7
 12 06 2015  00 11  -14.4887 17956.7 -13542.1 -37.0219 22490.7
 12 06 2015  00 12  -14.4889 17956.7 -13541.7 -37.0210 22490.5
 12 06 2015  00 13  -14.4888 17956.9 -13542.3 -37.0220 22491.0
 12 06 2015  00 14  -14.4889 17957.1 -13542.3 -37.0215 22491.1
 12 06 2015  00 15  -14.4891 17957.3 -13542.4 -37.0216 22491.3
 12 06 2015  00 16  -14.4890 17957.4 -13542.6 -37.0217 22491.6
 12 06 2015  00 17  -14.4892 17957.6 -13542.3 -37.0209 22491.5
 12 06 2015  00 18  -14.4892 17957.7 -13542.6 -37.0213 22491.8
 12 06 2015  00 19  -14.4893 17957.9 -13542.5 -37.0209 22491.9
 12 06 2015  00 20  -14.4890 17958.0 -13542.8 -37.0212 22492.2
 12 06 2015  00 21  -14.4888 17958.3 -13542.1 -37.0193 22491.9
 12 06 2015  00 22  -14.4886 17958.4 -13541.9 -37.0189 22491.9
 12 06 2015  00 23  -14.4885 17958.3 -13542.3 -37.0197 22492.1
 12 06 2015  00 24  -14.4884 17958.4 -13542.5 -37.0199 22492.3
 12 06 2015  00 25  -14.4885 17958.4 -13541.8 -37.0185 22491.9
 12 06 2015  00 26  -14.4883 17958.3 -13542.1 -37.0193 22492.0
 12 06 2015  00 27  -14.4885 17958.2 -13542.3 -37.0198 22492.0
 12 06 2015  00 28  -14.4882 17958.0 -13542.6 -37.0207 22492.1
 12 06 2015  00 29  -14.4879 17958.0 -13542.3 -37.0201 22491.8
 12 06 2015  00 30  -14.4879 17957.9 -13542.0 -37.0198 22491.6
 12 06 2015  00 31  -14.4880 17957.8 -13541.9 -37.0196 22491.4
 12 06 2015  00 32  -14.4884 17957.6 -13541.9 -37.0200 22491.2
 12 06 2015  00 33  -14.4887 17957.5 -13541.9 -37.0201 22491.2
 12 06 2015  00 34  -14.4884 17957.5 -13542.1 -37.0204 22491.3
 12 06 2015  00 35  -14.4881 17957.5 -13542.2 -37.0208 22491.4
 12 06 2015  00 36  -14.4877 17957.5 -13542.0 -37.0203 22491.3
 12 06 2015  00 37  -14.4873 17957.6 -13542.1 -37.0204 22491.4
 12 06 2015  00 38  -14.4872 17957.7 -13542.8 -37.0218 22491.9
 12 06 2015  00 39  -14.4874 17957.7 -13542.6 -37.0213 22491.8
 12 06 2015  00 40  -14.4873 17957.7 -13542.0 -37.0200 22491.5
 12 06 2015  00 41  -14.4873 17957.8 -13542.0 -37.0199 22491.5
 12 06 2015  00 42  -14.4873 17957.7 -13542.3 -37.0207 22491.6
 12 06 2015  00 43  -14.4871 17957.7 -13542.4 -37.0209 22491.6
 12 06 2015  00 44  -14.4870 17957.6 -13542.3 -37.0207 22491.6
 12 06 2015  00 45  -14.4870 17957.6 -13542.4 -37.0211 22491.6
 12 06 2015  00 46  -14.4869 17957.6 -13542.7 -37.0218 22491.8
 12 06 2015  00 47  -14.4869 17957.6 -13542.6 -37.0215 22491.7
 12 06 2015  00 48  -14.4869 17957.5 -13542.9 -37.0220 22491.8
 12 06 2015  00 49  -14.4868 17957.7 -13542.5 -37.0211 22491.7
 12 06 2015  00 50  -14.4866 17957.8 -13542.5 -37.0211 22491.8
 12 06 2015  00 51  -14.4866 17957.9 -13542.7 -37.0213 22492.0
 12 06 2015  00 52  -14.4867 17957.8 -13542.4 -37.0209 22491.8
 12 06 2015  00 53  -14.4869 17957.6 -13542.5 -37.0212 22491.6
 12 06 2015  00 54  -14.4870 17957.6 -13542.7 -37.0216 22491.8
 12 06 2015  00 55  -14.4874 17957.6 -13542.3 -37.0209 22491.6
 12 06 2015  00 56  -14.4876 17957.5 -13542.3 -37.0209 22491.5
 12 06 2015  00 57  -14.4876 17957.5 -13542.3 -37.0209 22491.5
 12 06 2015  00 58  -14.4876 17957.4 -13542.6 -37.0217 22491.6
 12 06 2015  00 59  -14.4876 17957.3 -13542.5 -37.0216 22491.4
 12 06 2015  01 00  -14.4875 17957.3 -13542.6 -37.0219 22491.4
 12 06 2015  01 01  -14.4877 17957.1 -13542.1 -37.0212 22491.0
 12 06 2015  01 02  -14.4879 17957.0 -13541.8 -37.0208 22490.8
 12 06 2015  01 03  -14.4879 17957.1 -13542.0 -37.0210 22490.9
 12 06 2015  01 04  -14.4880 17957.1 -13542.6 -37.0221 22491.3
 12 06 2015  01 05  -14.4883 17957.0 -13542.3 -37.0218 22491.0
 12 06 2015  01 06  -14.4888 17956.5 -13542.6 -37.0231 22490.9
 12 06 2015  01 07  -14.4893 17956.4 -13542.2 -37.0225 22490.6
 12 06 2015  01 08  -14.4891 17956.7 -13542.3 -37.0223 22490.8
 12 06 2015  01 09  -14.4887 17957.1 -13542.5 -37.0220 22491.3
 12 06 2015  01 10  -14.4885 17957.2 -13542.8 -37.0225 22491.5
 12 06 2015  01 11  -14.4888 17957.0 -13542.2 -37.0216 22491.0
 12 06 2015  01 12  -14.4891 17956.6 -13542.7 -37.0232 22491.0
 12 06 2015  01 13  -14.4894 17956.3 -13542.6 -37.0235 22490.7
 12 06 2015  01 14  -14.4896 17956.0 -13542.3 -37.0233 22490.3
 12 06 2015  01 15  -14.4898 17955.8 -13542.3 -37.0237 22490.1
 12 06 2015  01 16  -14.4900 17955.7 -13542.7 -37.0244 22490.3
 12 06 2015  01 17  -14.4899 17955.9 -13542.5 -37.0239 22490.3
 12 06 2015  01 18  -14.4898 17956.0 -13542.7 -37.0241 22490.5
 12 06 2015  01 19  -14.4893 17956.5 -13543.0 -37.0238 22491.1
 12 06 2015  01 20  -14.4889 17956.8 -13542.8 -37.0229 22491.2
 12 06 2015  01 21  -14.4886 17957.1 -13542.9 -37.0228 22491.5
 12 06 2015  01 22  -14.4883 17957.3 -13542.4 -37.0215 22491.4
 12 06 2015  01 23  -14.4883 17957.3 -13542.4 -37.0216 22491.4
 12 06 2015  01 24  -14.4884 17957.3 -13542.2 -37.0212 22491.2
 12 06 2015  01 25  -14.4886 17957.1 -13542.3 -37.0215 22491.1
 12 06 2015  01 26  -14.4888 17956.9 -13542.4 -37.0221 22491.1
 12 06 2015  01 27  -14.4887 17957.0 -13542.6 -37.0224 22491.2
 12 06 2015  01 28  -14.4888 17956.9 -13543.0 -37.0233 22491.4
 12 06 2015  01 29  -14.4889 17956.8 -13543.4 -37.0242 22491.6
 12 06 2015  01 30  -14.4893 17956.8 -13542.4 -37.0224 22491.0
 12 06 2015  01 31  -14.4891 17956.9 -13543.1 -37.0235 22491.5
 12 06 2015  01 32  -14.4893 17956.9 -13542.5 -37.0224 22491.1
 12 06 2015  01 33  -14.4895 17956.8 -13542.6 -37.0228 22491.1
 12 06 2015  01 34  -14.4895 17956.7 -13542.3 -37.0223 22490.9
 12 06 2015  01 35  -14.4898 17956.6 -13542.7 -37.0233 22491.0
 12 06 2015  01 36  -14.4899 17956.5 -13543.2 -37.0243 22491.2
 12 06 2015  01 37  -14.4900 17956.4 -13543.4 -37.0249 22491.3
 12 06 2015  01 38  -14.4899 17956.5 -13542.7 -37.0233 22490.9
 12 06 2015  01 39  -14.4897 17956.7 -13542.4 -37.0223 22490.9
 12 06 2015  01 40  -14.4898 17956.9 -13542.7 -37.0226 22491.2
 12 06 2015  01 41  -14.4899 17957.0 -13542.3 -37.0217 22491.1
 12 06 2015  01 42  -14.4896 17957.3 -13542.9 -37.0225 22491.7
 12 06 2015  01 43  -14.4891 17957.6 -13543.0 -37.0223 22492.0
 12 06 2015  01 44  -14.4888 17957.7 -13543.1 -37.0222 22492.1
 12 06 2015  01 45  -14.4889 17957.7 -13542.6 -37.0213 22491.8
 12 06 2015  01 46  -14.4888 17957.8 -13542.8 -37.0215 22492.0
 12 06 2015  01 47  -14.4885 17958.2 -13543.0 -37.0214 22492.4
 12 06 2015  01 48  -14.4884 17958.4 -13543.0 -37.0210 22492.6
 12 06 2015  01 49  -14.4888 17958.4 -13542.9 -37.0208 22492.5
 12 06 2015  01 50  -14.4893 17958.5 -13542.9 -37.0207 22492.6
 12 06 2015  01 51  -14.4898 17958.4 -13543.1 -37.0212 22492.6
 12 06 2015  01 52  -14.4902 17958.2 -13542.8 -37.0209 22492.3
 12 06 2015  01 53  -14.4907 17958.2 -13542.7 -37.0208 22492.3
 12 06 2015  01 54  -14.4909 17958.2 -13542.8 -37.0209 22492.3
 12 06 2015  01 55  -14.4909 17958.2 -13542.8 -37.0209 22492.3
 12 06 2015  01 56  -14.4912 17958.2 -13542.7 -37.0206 22492.3
 12 06 2015  01 57  -14.4912 17958.3 -13542.9 -37.0210 22492.4
 12 06 2015  01 58  -14.4913 17958.2 -13542.7 -37.0207 22492.3
 12 06 2015  01 59  -14.4914 17958.1 -13542.7 -37.0209 22492.2
 12 06 2015  02 00  -14.4912 17957.9 -13542.9 -37.0215 22492.2
 12 06 2015  02 01  -14.4914 17957.9 -13543.0 -37.0218 22492.2
 12 06 2015  02 02  -14.4915 17957.8 -13542.8 -37.0215 22492.0
 12 06 2015  02 03  -14.4916 17957.7 -13542.2 -37.0205 22491.6
 12 06 2015  02 04  -14.4914 17957.7 -13542.7 -37.0215 22491.9
 12 06 2015  02 05  -14.4913 17957.7 -13542.9 -37.0218 22492.0
 12 06 2015  02 06  -14.4913 17957.8 -13543.0 -37.0220 22492.2
 12 06 2015  02 07  -14.4913 17957.8 -13543.4 -37.0228 22492.4
 12 06 2015  02 08  -14.4914 17957.7 -13543.1 -37.0223 22492.1
 12 06 2015  02 09  -14.4912 17957.9 -13542.7 -37.0213 22492.0
 12 06 2015  02 10  -14.4912 17957.7 -13543.1 -37.0224 22492.1
 12 06 2015  02 11  -14.4912 17957.5 -13543.1 -37.0225 22492.0
 12 06 2015  02 12  -14.4916 17957.6 -13542.8 -37.0219 22491.8
 12 06 2015  02 13  -14.4917 17957.5 -13543.1 -37.0225 22491.9
 12 06 2015  02 14  -14.4918 17957.4 -13543.0 -37.0226 22491.8
 12 06 2015  02 15  -14.4919 17957.2 -13543.2 -37.0232 22491.8
 12 06 2015  02 16  -14.4923 17957.1 -13543.0 -37.0231 22491.5
 12 06 2015  02 17  -14.4921 17957.2 -13543.6 -37.0241 22492.0
 12 06 2015  02 18  -14.4919 17957.3 -13543.4 -37.0234 22492.0
 12 06 2015  02 19  -14.4918 17957.3 -13542.2 -37.0211 22491.3
 12 06 2015  02 20  -14.4911 17957.3 -13542.9 -37.0225 22491.7
 12 06 2015  02 21  -14.4909 17957.2 -13542.8 -37.0225 22491.6
 12 06 2015  02 22  -14.4913 17956.9 -13543.1 -37.0235 22491.4
 12 06 2015  02 23  -14.4916 17956.7 -13543.2 -37.0240 22491.3
 12 06 2015  02 24  -14.4919 17956.6 -13543.4 -37.0246 22491.4
 12 06 2015  02 25  -14.4923 17956.6 -13543.2 -37.0242 22491.2
 12 06 2015  02 26  -14.4928 17956.4 -13543.1 -37.0242 22491.1
 12 06 2015  02 27  -14.4929 17956.5 -13543.2 -37.0244 22491.2
 12 06 2015  02 28  -14.4927 17956.4 -13543.2 -37.0244 22491.1
 12 06 2015  02 29  -14.4929 17956.3 -13543.2 -37.0246 22491.0
 12 06 2015  02 30  -14.4932 17956.1 -13543.3 -37.0251 22491.0
 12 06 2015  02 31  -14.4935 17956.0 -13543.1 -37.0249 22490.7
 12 06 2015  02 32  -14.4939 17955.9 -13543.3 -37.0255 22490.8
 12 06 2015  02 33  -14.4941 17955.8 -13543.2 -37.0255 22490.6
 12 06 2015  02 34  -14.4941 17955.6 -13543.4 -37.0261 22490.6
 12 06 2015  02 35  -14.4942 17955.4 -13543.4 -37.0264 22490.5
 12 06 2015  02 36  -14.4944 17955.3 -13543.0 -37.0257 22490.2
 12 06 2015  02 37  -14.4945 17955.2 -13543.6 -37.0271 22490.4
 12 06 2015  02 38  -14.4946 17955.0 -13543.3 -37.0267 22490.1
 12 06 2015  02 39  -14.4945 17955.0 -13543.4 -37.0270 22490.2
 12 06 2015  02 40  -14.4938 17955.0 -13543.6 -37.0274 22490.3
 12 06 2015  02 41  -14.4932 17955.1 -13543.7 -37.0276 22490.4
 12 06 2015  02 42  -14.4929 17955.0 -13543.3 -37.0269 22490.1
 12 06 2015  02 43  -14.4924 17955.2 -13543.2 -37.0265 22490.2
 12 06 2015  02 44  -14.4922 17955.1 -13543.5 -37.0272 22490.3
 12 06 2015  02 45  -14.4922 17955.0 -13543.9 -37.0280 22490.4
 12 06 2015  02 46  -14.4919 17955.2 -13544.0 -37.0279 22490.6
 12 06 2015  02 47  -14.4912 17955.3 -13543.3 -37.0264 22490.3
 12 06 2015  02 48  -14.4906 17955.2 -13543.3 -37.0266 22490.2
 12 06 2015  02 49  -14.4906 17954.9 -13543.7 -37.0277 22490.2
 12 06 2015  02 50  -14.4906 17954.6 -13544.0 -37.0288 22490.1
 12 06 2015  02 51  -14.4904 17954.5 -13543.7 -37.0286 22489.9
 12 06 2015  02 52  -14.4897 17954.4 -13543.7 -37.0285 22489.9
 12 06 2015  02 53  -14.4888 17954.6 -13544.3 -37.0296 22490.4
 12 06 2015  02 54  -14.4889 17954.4 -13543.2 -37.0275 22489.5
 12 06 2015  02 55  -14.4891 17954.2 -13544.1 -37.0299 22489.9
 12 06 2015  02 56  -14.4895 17954.1 -13543.3 -37.0282 22489.4
 12 06 2015  02 57  -14.4892 17954.3 -13543.5 -37.0284 22489.6
 12 06 2015  02 58  -14.4890 17954.4 -13543.8 -37.0287 22489.9
 12 06 2015  02 59  -14.4892 17954.3 -13544.1 -37.0295 22490.0
 12 06 2015  03 00  -14.4894 17954.3 -13543.3 -37.0279 22489.5
 12 06 2015  03 01  -14.4896 17954.2 -13543.6 -37.0287 22489.6
 12 06 2015  03 02  -14.4900 17954.2 -13543.5 -37.0284 22489.6
 12 06 2015  03 03  -14.4900 17954.5 -13543.7 -37.0284 22489.9
 12 06 2015  03 04  -14.4900 17954.7 -13543.8 -37.0284 22490.1
 12 06 2015  03 05  -14.4900 17954.9 -13544.1 -37.0285 22490.5
 12 06 2015  03 06  -14.4897 17955.0 -13544.1 -37.0286 22490.5
 12 06 2015  03 07  -14.4894 17955.0 -13544.2 -37.0288 22490.6
 12 06 2015  03 08  -14.4892 17955.0 -13543.9 -37.0281 22490.4
 12 06 2015  03 09  -14.4886 17955.1 -13544.0 -37.0282 22490.6
 12 06 2015  03 10  -14.4883 17955.0 -13544.3 -37.0289 22490.7
 12 06 2015  03 11  -14.4882 17954.9 -13543.4 -37.0273 22490.1
 12 06 2015  03 12  -14.4878 17954.9 -13544.1 -37.0287 22490.4
 12 06 2015  03 13  -14.4878 17954.7 -13544.3 -37.0294 22490.4
 12 06 2015  03 14  -14.4878 17954.6 -13543.9 -37.0286 22490.1
 12 06 2015  03 15  -14.4878 17954.5 -13544.3 -37.0295 22490.3
 12 06 2015  03 16  -14.4883 17954.4 -13543.7 -37.0285 22489.8
 12 06 2015  03 17  -14.4887 17954.3 -13543.9 -37.0291 22489.9
 12 06 2015  03 18  -14.4891 17954.3 -13544.1 -37.0296 22490.0
 12 06 2015  03 19  -14.4892 17954.2 -13543.8 -37.0292 22489.8
 12 06 2015  03 20  -14.4892 17954.2 -13544.0 -37.0295 22489.8
 12 06 2015  03 21  -14.4894 17954.1 -13544.0 -37.0297 22489.8
 12 06 2015  03 22  -14.4894 17954.1 -13544.0 -37.0298 22489.8
 12 06 2015  03 23  -14.4893 17954.1 -13544.0 -37.0296 22489.7
 12 06 2015  03 24  -14.4892 17954.1 -13544.0 -37.0296 22489.8
 12 06 2015  03 25  -14.4887 17954.2 -13544.0 -37.0297 22489.8
 12 06 2015  03 26  -14.4879 17954.2 -13544.1 -37.0297 22489.9
 12 06 2015  03 27  -14.4872 17954.4 -13544.1 -37.0293 22490.0
 12 06 2015  03 28  -14.4863 17954.7 -13544.0 -37.0289 22490.2
 12 06 2015  03 29  -14.4861 17954.6 -13544.0 -37.0289 22490.2
 12 06 2015  03 30  -14.4863 17954.5 -13544.0 -37.0291 22490.1
 12 06 2015  03 31  -14.4867 17954.7 -13544.0 -37.0289 22490.2
 12 06 2015  03 32  -14.4872 17955.0 -13543.9 -37.0281 22490.4
 12 06 2015  03 33  -14.4869 17955.3 -13544.1 -37.0280 22490.8
 12 06 2015  03 34  -14.4865 17955.3 -13544.3 -37.0283 22490.9
 12 06 2015  03 35  -14.4863 17955.3 -13544.0 -37.0278 22490.7
 12 06 2015  03 36  -14.4860 17955.4 -13544.1 -37.0279 22490.8
 12 06 2015  03 37  -14.4857 17955.4 -13544.0 -37.0276 22490.8
 12 06 2015  03 38  -14.4854 17955.7 -13543.8 -37.0268 22490.9
 12 06 2015  03 39  -14.4851 17955.9 -13544.0 -37.0270 22491.2
 12 06 2015  03 40  -14.4849 17956.1 -13544.2 -37.0270 22491.5
 12 06 2015  03 41  -14.4847 17956.4 -13543.9 -37.0260 22491.5
 12 06 2015  03 42  -14.4831 17957.5 -13544.8 -37.0260 22492.9
 12 06 2015  03 43  -14.4830 17957.6 -13544.0 -37.0242 22492.5
 12 06 2015  03 44  -14.4820 17957.9 -13544.4 -37.0246 22493.1
 12 06 2015  03 45  -14.4813 17958.1 -13544.6 -37.0247 22493.4
 12 06 2015  03 46  -14.4809 17958.4 -13544.5 -37.0241 22493.5
 12 06 2015  03 47  -14.4803 17959.0 -13543.8 -37.0217 22493.6
 12 06 2015  03 48  -14.4800 17959.6 -13543.6 -37.0203 22493.9
 12 06 2015  03 49  -14.4794 17960.5 -13544.2 -37.0202 22495.0
 12 06 2015  03 50  -14.4795 17961.2 -13544.1 -37.0189 22495.5
 12 06 2015  03 51  -14.4784 17961.8 -13543.8 -37.0174 22495.8
 12 06 2015  03 52  -14.4782 17962.2 -13543.7 -37.0165 22496.1
 12 06 2015  03 53  -14.4778 17962.4 -13543.9 -37.0168 22496.3
 12 06 2015  03 54  -14.4781 17962.8 -13543.9 -37.0161 22496.6
 12 06 2015  03 55  -14.4780 17962.8 -13543.1 -37.0145 22496.2
 12 06 2015  03 56  -14.4776 17962.9 -13543.8 -37.0158 22496.7
 12 06 2015  03 57  -14.4776 17963.1 -13543.3 -37.0145 22496.5
 12 06 2015  03 58  -14.4777 17962.8 -13542.6 -37.0135 22495.9
 12 06 2015  03 59  -14.4775 17962.8 -13543.6 -37.0155 22496.5
 12 06 2015  04 00  -14.4771 17963.0 -13543.3 -37.0146 22496.4
 12 06 2015  04 01  -14.4766 17963.1 -13543.1 -37.0141 22496.4
 12 06 2015  04 02  -14.4761 17963.0 -13543.3 -37.0146 22496.5
 12 06 2015  04 03  -14.4756 17963.0 -13543.0 -37.0140 22496.3
 12 06 2015  04 04  -14.4750 17963.0 -13543.1 -37.0141 22496.4
 12 06 2015  04 05  -14.4746 17962.8 -13543.2 -37.0147 22496.2
 12 06 2015  04 06  -14.4746 17962.6 -13542.9 -37.0144 22495.9
 12 06 2015  04 07  -14.4746 17962.5 -13542.9 -37.0146 22495.8
 12 06 2015  04 08  -14.4744 17962.5 -13543.5 -37.0158 22496.1
 12 06 2015  04 09  -14.4745 17962.3 -13542.5 -37.0141 22495.4
 12 06 2015  04 10  -14.4744 17962.2 -13543.3 -37.0157 22495.8
 12 06 2015  04 11  -14.4745 17962.2 -13543.1 -37.0155 22495.7
 12 06 2015  04 12  -14.4743 17962.2 -13543.4 -37.0160 22495.9
 12 06 2015  04 13  -14.4746 17962.1 -13543.7 -37.0169 22496.0
 12 06 2015  04 14  -14.4748 17962.1 -13542.9 -37.0151 22495.5
 12 06 2015  04 15  -14.4749 17962.1 -13543.9 -37.0171 22496.1
 12 06 2015  04 16  -14.4755 17962.2 -13543.3 -37.0159 22495.8
 12 06 2015  04 17  -14.4758 17962.2 -13543.0 -37.0151 22495.6
 12 06 2015  04 18  -14.4764 17962.1 -13543.2 -37.0158 22495.7
 12 06 2015  04 19  -14.4768 17961.8 -13543.3 -37.0163 22495.5
 12 06 2015  04 20  -14.4769 17961.8 -13543.6 -37.0170 22495.6
 12 06 2015  04 21  -14.4771 17961.7 -13543.8 -37.0177 22495.7
 12 06 2015  04 22  -14.4775 17961.8 -13544.0 -37.0178 22495.8
 12 06 2015  04 23  -14.4778 17961.7 -13544.0 -37.0179 22495.8
 12 06 2015  04 24  -14.4781 17961.6 -13543.2 -37.0165 22495.2
 12 06 2015  04 25  -14.4778 17961.5 -13543.6 -37.0176 22495.5
 12 06 2015  04 26  -14.4773 17961.4 -13543.4 -37.0172 22495.3
 12 06 2015  04 27  -14.4765 17961.5 -13543.8 -37.0179 22495.5
 12 06 2015  04 28  -14.4762 17961.4 -13543.3 -37.0170 22495.1
 12 06 2015  04 29  -14.4756 17961.3 -13543.8 -37.0181 22495.4
 12 06 2015  04 30  -14.4749 17961.1 -13544.1 -37.0191 22495.4
 12 06 2015  04 31  -14.4743 17960.7 -13543.5 -37.0185 22494.7
 12 06 2015  04 32  -14.4736 17960.4 -13543.9 -37.0198 22494.8
 12 06 2015  04 33  -14.4738 17960.2 -13544.2 -37.0206 22494.8
 12 06 2015  04 34  -14.4744 17960.3 -13544.5 -37.0212 22495.0
 12 06 2015  04 35  -14.4752 17960.2 -13544.1 -37.0204 22494.7
 12 06 2015  04 36  -14.4758 17960.1 -13543.6 -37.0195 22494.3
 12 06 2015  04 37  -14.4768 17959.8 -13543.5 -37.0200 22494.0
 12 06 2015  04 38  -14.4773 17959.7 -13544.4 -37.0219 22494.5
 12 06 2015  04 39  -14.4782 17959.6 -13543.2 -37.0196 22493.6
 12 06 2015  04 40  -14.4785 17959.5 -13544.0 -37.0214 22494.1
 12 06 2015  04 41  -14.4789 17959.4 -13543.7 -37.0210 22493.8
 12 06 2015  04 42  -14.4791 17959.3 -13543.9 -37.0214 22493.9
 12 06 2015  04 43  -14.4790 17959.3 -13544.3 -37.0224 22494.1
 12 06 2015  04 44  -14.4789 17959.2 -13543.9 -37.0216 22493.8
 12 06 2015  04 45  -14.4789 17959.2 -13544.3 -37.0226 22494.0
 12 06 2015  04 46  -14.4789 17959.2 -13544.0 -37.0218 22493.8
 12 06 2015  04 47  -14.4791 17959.4 -13543.5 -37.0205 22493.7
 12 06 2015  04 48  -14.4791 17959.6 -13543.8 -37.0209 22494.0
 12 06 2015  04 49  -14.4794 17959.5 -13543.5 -37.0204 22493.7
 12 06 2015  04 50  -14.4793 17959.3 -13543.6 -37.0210 22493.7
 12 06 2015  04 51  -14.4791 17959.3 -13544.6 -37.0228 22494.3
 12 06 2015  04 52  -14.4791 17959.4 -13544.8 -37.0232 22494.5
 12 06 2015  04 53  -14.4787 17959.6 -13544.0 -37.0212 22494.1
 12 06 2015  04 54  -14.4784 17959.5 -13544.8 -37.0230 22494.6
 12 06 2015  04 55  -14.4786 17959.5 -13544.0 -37.0213 22494.1
 12 06 2015  04 56  -14.4787 17959.5 -13544.3 -37.0220 22494.3
 12 06 2015  04 57  -14.4786 17959.7 -13543.8 -37.0207 22494.1
 12 06 2015  04 58  -14.4785 17959.8 -13544.1 -37.0211 22494.4
 12 06 2015  04 59  -14.4785 17959.8 -13544.5 -37.0219 22494.6
 12 06 2015  05 00  -14.4786 17959.8 -13544.3 -37.0215 22494.5
 12 06 2015  05 01  -14.4788 17959.6 -13544.6 -37.0224 22494.5
 12 06 2015  05 02  -14.4790 17959.6 -13544.2 -37.0216 22494.3
 12 06 2015  05 03  -14.4782 17959.8 -13544.3 -37.0215 22494.4
 12 06 2015  05 04  -14.4774 17960.1 -13544.4 -37.0213 22494.8
 12 06 2015  05 05  -14.4766 17960.3 -13544.5 -37.0212 22495.0
 12 06 2015  05 06  -14.4760 17960.5 -13544.7 -37.0213 22495.2
 12 06 2015  05 07  -14.4758 17960.6 -13544.2 -37.0201 22495.1
 12 06 2015  05 08  -14.4752 17960.8 -13544.2 -37.0198 22495.3
 12 06 2015  05 09  -14.4746 17961.3 -13544.4 -37.0195 22495.7
 12 06 2015  05 10  -14.4745 17961.2 -13544.6 -37.0200 22495.8
 12 06 2015  05 11  -14.4733 17961.8 -13545.1 -37.0202 22496.5
 12 06 2015  05 12  -14.4733 17961.8 -13544.6 -37.0190 22496.3
 12 06 2015  05 13  -14.4730 17962.0 -13544.7 -37.0189 22496.5
 12 06 2015  05 14  -14.4731 17962.3 -13544.4 -37.0178 22496.5
